T[K]	Re[\chi]	Im[\chi]
 290.25900	  12.87772	  -0.48601
 290.25100	  12.87225	  -0.46860
 290.23700	  12.87767	  -0.47786
 290.21900	  12.87775	  -0.47931
 290.20100	  12.87591	  -0.46865
 290.18200	  12.87445	  -0.48720
 290.16200	  12.87206	  -0.49199
 290.14000	  12.87575	  -0.47677
 290.11700	  12.87822	  -0.47807
 290.09300	  12.88031	  -0.46201
 290.06700	  12.87222	  -0.47441
 290.04000	  12.86701	  -0.47059
 290.01200	  12.87789	  -0.47077
 289.98200	  12.88127	  -0.47210
 289.95100	  12.88817	  -0.47635
 289.91900	  12.88239	  -0.48159
 289.88600	  12.87686	  -0.46620
 289.85100	  12.88241	  -0.47652
 289.81500	  12.88748	  -0.45978
 289.77700	  12.87992	  -0.47206
 289.73700	  12.88384	  -0.47473
 289.69600	  12.88509	  -0.47650
 289.65400	  12.87602	  -0.47115
 289.61100	  12.87680	  -0.48606
 289.56500	  12.87939	  -0.47912
 289.51800	  12.89076	  -0.46981
 289.47000	  12.88275	  -0.46918
 289.42100	  12.88605	  -0.47887
 289.36900	  12.87839	  -0.47878
 289.31600	  12.88517	  -0.48361
 289.26100	  12.88997	  -0.47879
 289.20500	  12.88776	  -0.47304
 289.14800	  12.88303	  -0.47655
 289.08900	  12.87564	  -0.47129
 289.02800	  12.87656	  -0.47218
 288.96600	  12.88001	  -0.46902
 288.90200	  12.88547	  -0.47559
 288.83600	  12.88621	  -0.47658
 288.76900	  12.87951	  -0.48189
 288.70000	  12.88510	  -0.47579
 288.62900	  12.88566	  -0.47129
 288.55700	  12.87771	  -0.47557
 288.48200	  12.86716	  -0.47585
 288.40600	  12.88371	  -0.46863
 288.32900	  12.88400	  -0.47073
 288.24900	  12.90018	  -0.48267
 288.16800	  12.89241	  -0.47761
 288.08400	  12.89503	  -0.47186
 288.00000	  12.89806	  -0.47776
 287.91300	  12.88419	  -0.48340
 287.82500	  12.87892	  -0.47667
 287.73400	  12.89163	  -0.47490
 287.64200	  12.88651	  -0.46920
 287.54700	  12.88998	  -0.46606
 287.45200	  12.89214	  -0.47633
 287.35400	  12.89998	  -0.48034
 287.25500	  12.89565	  -0.47928
 287.15400	  12.88406	  -0.48571
 287.05100	  12.89533	  -0.48503
 286.94700	  12.88116	  -0.47476
 286.84100	  12.88363	  -0.47953
 286.73300	  12.88502	  -0.48392
 286.62400	  12.88782	  -0.47861
 286.51200	  12.88709	  -0.47414
 286.39900	  12.88410	  -0.46711
 286.28400	  12.88206	  -0.47897
 286.16800	  12.89230	  -0.47677
 286.05000	  12.90426	  -0.48155
 285.93100	  12.89736	  -0.48213
 285.81000	  12.89742	  -0.48675
 285.68800	  12.89344	  -0.48392
 285.56300	  12.89178	  -0.47433
 285.43200	  12.89654	  -0.47570
 285.29800	  12.89901	  -0.48028
 285.16300	  12.89686	  -0.47809
 285.02700	  12.89931	  -0.48492
 284.88800	  12.90238	  -0.47757
 284.74400	  12.89713	  -0.48014
 284.60400	  12.89961	  -0.48447
 284.46500	  12.90641	  -0.47958
 284.32300	  12.88600	  -0.48932
 284.18100	  12.89309	  -0.48196
 284.03700	  12.89268	  -0.48121
 283.89100	  12.88814	  -0.47157
 283.74300	  12.90233	  -0.47579
 283.59400	  12.89896	  -0.48233
 283.44300	  12.88927	  -0.48078
 283.29000	  12.89479	  -0.48001
 283.13500	  12.89281	  -0.48307
 282.97900	  12.89303	  -0.48155
 282.82000	  12.89809	  -0.47990
 282.66100	  12.91165	  -0.47107
 282.49900	  12.90125	  -0.47947
 282.33600	  12.89855	  -0.48041
 282.17100	  12.90072	  -0.48853
 282.00500	  12.90209	  -0.48263
 281.83700	  12.90500	  -0.48389
 281.66800	  12.90671	  -0.48395
 281.49700	  12.90625	  -0.47985
 281.32500	  12.89496	  -0.48301
 281.15100	  12.90315	  -0.47947
 280.97500	  12.91116	  -0.47782
 280.79900	  12.90188	  -0.47537
 280.62100	  12.90243	  -0.47979
 280.44100	  12.90914	  -0.48450
 280.26000	  12.91124	  -0.47569
 280.07900	  12.90546	  -0.48509
 279.89600	  12.90327	  -0.48590
 279.71200	  12.90515	  -0.49417
 279.52600	  12.90729	  -0.48583
 279.34000	  12.90704	  -0.47538
 279.15200	  12.90201	  -0.47798
 278.96300	  12.90121	  -0.49044
 278.77200	  12.90672	  -0.48504
 278.58000	  12.91109	  -0.48298
 278.38600	  12.91147	  -0.47714
 278.19300	  12.91566	  -0.47309
 277.99800	  12.91001	  -0.47647
 277.80200	  12.90705	  -0.48050
 277.60500	  12.90433	  -0.48398
 277.40800	  12.90910	  -0.47634
 277.21000	  12.89823	  -0.48609
 277.01100	  12.91281	  -0.47698
 276.81100	  12.90146	  -0.47681
 276.61100	  12.89600	  -0.47989
 276.41000	  12.89369	  -0.48847
 276.20900	  12.89754	  -0.47708
 276.00700	  12.90853	  -0.47935
 275.80400	  12.91110	  -0.47652
 275.60100	  12.90465	  -0.47811
 275.39700	  12.91043	  -0.48094
 275.19200	  12.90267	  -0.47142
 274.98700	  12.89645	  -0.48263
 274.78200	  12.89730	  -0.49411
 274.57600	  12.90050	  -0.48542
 274.37000	  12.90566	  -0.48109
 274.16300	  12.90270	  -0.48068
 273.95500	  12.91296	  -0.46920
 273.74700	  12.91137	  -0.46647
 273.53900	  12.91321	  -0.47512
 273.33100	  12.91071	  -0.49236
 273.12100	  12.90605	  -0.47416
 272.91200	  12.89644	  -0.47084
 272.70200	  12.90928	  -0.47635
 272.49100	  12.90237	  -0.48852
 272.28100	  12.90732	  -0.47777
 272.07000	  12.90683	  -0.48146
 271.85800	  12.90446	  -0.48520
 271.64700	  12.89573	  -0.48606
 271.43400	  12.90595	  -0.48131
 271.22200	  12.89618	  -0.48484
 271.01000	  12.89661	  -0.47991
 270.79700	  12.90185	  -0.47003
 270.58300	  12.90781	  -0.47523
 270.37000	  12.89743	  -0.48555
 270.15600	  12.90127	  -0.47946
 269.94200	  12.90185	  -0.47663
 269.72800	  12.89981	  -0.48283
 269.51300	  12.90565	  -0.47307
 269.29900	  12.90112	  -0.47253
 269.08400	  12.89640	  -0.48822
 268.86900	  12.90221	  -0.47910
 268.65400	  12.89897	  -0.48352
 268.43800	  12.90216	  -0.47781
 268.22300	  12.89474	  -0.47457
 268.00600	  12.90053	  -0.47901
 267.79100	  12.90935	  -0.47778
 267.57400	  12.90996	  -0.47646
 267.35800	  12.90168	  -0.47865
 267.14200	  12.89540	  -0.46732
 266.92500	  12.90010	  -0.47875
 266.71000	  12.91136	  -0.47846
 266.49200	  12.89656	  -0.48937
 266.27600	  12.90122	  -0.48313
 266.05900	  12.89578	  -0.48170
 265.84200	  12.90155	  -0.47317
 265.62500	  12.91211	  -0.47681
 265.40800	  12.91041	  -0.47708
 265.19100	  12.89191	  -0.47451
 264.97400	  12.90086	  -0.48473
 264.75700	  12.89635	  -0.48090
 264.54000	  12.90789	  -0.47512
 264.32200	  12.89379	  -0.48343
 264.10500	  12.89490	  -0.48377
 263.88700	  12.89788	  -0.47557
 263.67000	  12.89925	  -0.48628
 263.45200	  12.90472	  -0.47819
 263.23500	  12.90360	  -0.47885
 263.01800	  12.90574	  -0.47714
 262.80000	  12.89883	  -0.48352
 262.58300	  12.90517	  -0.48477
 262.36500	  12.90330	  -0.48508
 262.14800	  12.89543	  -0.47532
 261.93000	  12.90122	  -0.48824
 261.71300	  12.89565	  -0.47824
 261.49600	  12.89160	  -0.47405
 261.27800	  12.90030	  -0.48113
 261.06100	  12.89803	  -0.47755
 260.84300	  12.89815	  -0.48530
 260.62300	  12.89779	  -0.48458
 260.40300	  12.90356	  -0.47525
 260.18400	  12.89823	  -0.48446
 259.96500	  12.88726	  -0.47781
 259.74300	  12.89382	  -0.47612
 259.51400	  12.90367	  -0.47192
 259.28500	  12.89547	  -0.47487
 259.05900	  12.89780	  -0.47623
 258.83300	  12.89747	  -0.48446
 258.60600	  12.90854	  -0.48423
 258.38000	  12.89117	  -0.47600
 258.15500	  12.90040	  -0.49181
 257.92900	  12.90197	  -0.48025
 257.70500	  12.89365	  -0.48746
 257.48000	  12.89566	  -0.48322
 257.25600	  12.89476	  -0.47531
 257.03100	  12.89570	  -0.47948
 256.80700	  12.90161	  -0.48486
 256.58200	  12.89508	  -0.47576
 256.35700	  12.89093	  -0.48040
 256.13300	  12.90111	  -0.47695
 255.90800	  12.89696	  -0.48605
 255.68300	  12.89266	  -0.49421
 255.45800	  12.89101	  -0.48737
 255.23200	  12.88801	  -0.48142
 255.00700	  12.89939	  -0.48789
 254.78200	  12.89521	  -0.47385
 254.55700	  12.88619	  -0.47317
 254.33100	  12.89114	  -0.47764
 254.10600	  12.89547	  -0.48776
 253.88100	  12.89940	  -0.48752
 253.65700	  12.89568	  -0.47793
 253.43300	  12.89267	  -0.47753
 253.20800	  12.89646	  -0.48198
 252.98400	  12.89252	  -0.49267
 252.76000	  12.89197	  -0.47833
 252.53600	  12.91326	  -0.47770
 252.31200	  12.89690	  -0.48547
 252.08800	  12.88806	  -0.48239
 251.86500	  12.89113	  -0.49065
 251.64200	  12.88772	  -0.48789
 251.41800	  12.88878	  -0.48263
 251.19500	  12.88314	  -0.47456
 250.97100	  12.88865	  -0.48184
 250.74900	  12.88908	  -0.48090
 250.52600	  12.89845	  -0.47596
 250.30300	  12.88641	  -0.47951
 250.08100	  12.88627	  -0.48760
 249.85900	  12.89150	  -0.48177
 249.63700	  12.89578	  -0.49076
 249.41500	  12.88959	  -0.48211
 249.19400	  12.90145	  -0.48181
 248.97300	  12.88463	  -0.47715
 248.75200	  12.88212	  -0.48794
 248.53200	  12.87916	  -0.48422
 248.31200	  12.88327	  -0.47632
 248.09200	  12.87946	  -0.47598
 247.87200	  12.88495	  -0.48244
 247.65300	  12.88481	  -0.48272
 247.43400	  12.88876	  -0.47566
 247.21500	  12.89163	  -0.47205
 246.99700	  12.88473	  -0.47514
 246.77900	  12.88638	  -0.48029
 246.56000	  12.88580	  -0.48642
 246.34400	  12.89471	  -0.48827
 246.12600	  12.89517	  -0.49030
 245.90900	  12.88411	  -0.48263
 245.69300	  12.88031	  -0.48659
 245.47700	  12.88235	  -0.48369
 245.26100	  12.88900	  -0.48359
 245.04600	  12.88018	  -0.47341
 244.83100	  12.88312	  -0.48002
 244.61600	  12.88323	  -0.47197
 244.40200	  12.89324	  -0.48663
 244.18800	  12.88055	  -0.48497
 243.97400	  12.88230	  -0.47729
 243.75900	  12.87193	  -0.48853
 243.54300	  12.88265	  -0.47452
 243.32900	  12.88705	  -0.48210
 243.11500	  12.88299	  -0.46914
 242.90000	  12.87934	  -0.47528
 242.68700	  12.88632	  -0.48888
 242.47400	  12.88696	  -0.48349
 242.26000	  12.87958	  -0.48467
 242.04800	  12.88261	  -0.48944
 241.83600	  12.88071	  -0.49796
 241.62400	  12.87938	  -0.48212
 241.41300	  12.88301	  -0.48193
 241.20100	  12.87991	  -0.47623
 240.99000	  12.88141	  -0.48054
 240.78000	  12.88653	  -0.47385
 240.57000	  12.87809	  -0.48348
 240.36000	  12.87074	  -0.47933
 240.15000	  12.87235	  -0.48469
 239.94100	  12.88423	  -0.48084
 239.73200	  12.87235	  -0.48338
 239.52300	  12.87712	  -0.47306
 239.31500	  12.88060	  -0.48103
 239.10700	  12.87524	  -0.47986
 238.90000	  12.86577	  -0.48647
 238.69300	  12.87122	  -0.47710
 238.48600	  12.87756	  -0.47611
 238.28000	  12.86540	  -0.47527
 238.07400	  12.86846	  -0.47553
 237.86800	  12.88156	  -0.49136
 237.66300	  12.86611	  -0.48115
 237.45800	  12.86415	  -0.46801
 237.25300	  12.87002	  -0.47477
 237.04900	  12.86514	  -0.47868
 236.84400	  12.88317	  -0.48152
 236.64100	  12.87349	  -0.47622
 236.43800	  12.86696	  -0.47860
 236.23500	  12.87084	  -0.48619
 236.03200	  12.86708	  -0.48787
 235.82900	  12.85836	  -0.47865
 235.62600	  12.85844	  -0.48416
 235.42500	  12.87180	  -0.48138
 235.22300	  12.86584	  -0.48192
 235.02200	  12.86881	  -0.47833
 234.82100	  12.85914	  -0.46897
 234.62000	  12.87065	  -0.48085
 234.42000	  12.86133	  -0.47605
 234.22000	  12.85787	  -0.47971
 234.02000	  12.86680	  -0.48290
 233.82100	  12.86107	  -0.46699
 233.62200	  12.86065	  -0.47463
 233.42300	  12.85643	  -0.47761
 233.22500	  12.85658	  -0.47692
 233.02600	  12.85351	  -0.47821
 232.82800	  12.86224	  -0.47791
 232.63100	  12.85748	  -0.49699
 232.43300	  12.85038	  -0.48663
 232.23600	  12.85094	  -0.48816
 232.03900	  12.85885	  -0.48157
 231.84300	  12.85568	  -0.48888
 231.64700	  12.85785	  -0.49185
 231.45200	  12.85233	  -0.48243
 231.25600	  12.85093	  -0.48004
 231.06000	  12.85393	  -0.47716
 230.86600	  12.85876	  -0.48178
 230.67100	  12.84870	  -0.48662
 230.47700	  12.85414	  -0.47695
 230.28300	  12.86707	  -0.47686
 230.08900	  12.84632	  -0.47571
 229.89600	  12.85492	  -0.48457
 229.70200	  12.84573	  -0.47981
 229.50900	  12.83716	  -0.48418
 229.31700	  12.86136	  -0.47292
 229.12500	  12.84384	  -0.48064
 228.93300	  12.84935	  -0.48250
 228.74200	  12.84192	  -0.48024
 228.55000	  12.85177	  -0.48317
 228.35900	  12.84414	  -0.48600
 228.16900	  12.84874	  -0.47384
 227.97900	  12.85252	  -0.47397
 227.78700	  12.84970	  -0.48399
 227.59400	  12.84667	  -0.46777
 227.40300	  12.84436	  -0.47431
 227.21200	  12.84004	  -0.48859
 227.02100	  12.84947	  -0.48548
 226.83000	  12.84899	  -0.49630
 226.63900	  12.85853	  -0.48368
 226.44900	  12.86407	  -0.48283
 226.26000	  12.85016	  -0.48249
 226.07000	  12.84158	  -0.48203
 225.88100	  12.84762	  -0.47483
 225.69200	  12.85832	  -0.47068
 225.50300	  12.84087	  -0.47492
 225.31600	  12.83977	  -0.47570
 225.12700	  12.85140	  -0.48178
 224.93900	  12.85140	  -0.48912
 224.75200	  12.84770	  -0.47584
 224.56500	  12.84799	  -0.47710
 224.37700	  12.84226	  -0.47526
 224.19100	  12.84484	  -0.48264
 224.00400	  12.83868	  -0.48266
 223.81800	  12.84702	  -0.47447
 223.63300	  12.83558	  -0.48080
 223.44700	  12.84184	  -0.47740
 223.26200	  12.84271	  -0.47808
 223.07700	  12.84451	  -0.48421
 222.89300	  12.84444	  -0.47641
 222.70900	  12.83240	  -0.47552
 222.52500	  12.84033	  -0.47565
 222.34100	  12.84653	  -0.48638
 222.15700	  12.84315	  -0.47515
 221.97300	  12.84211	  -0.46706
 221.79100	  12.83084	  -0.48102
 221.60800	  12.82528	  -0.48441
 221.42600	  12.83141	  -0.48012
 221.24400	  12.84089	  -0.46829
 221.06200	  12.84267	  -0.47514
 220.88100	  12.84327	  -0.47674
 220.70000	  12.83925	  -0.47383
 220.51900	  12.83525	  -0.46498
 220.33900	  12.83228	  -0.47363
 220.15800	  12.83460	  -0.48298
 219.97800	  12.82586	  -0.48172
 219.79800	  12.83622	  -0.47566
 219.61900	  12.82336	  -0.48124
 219.44000	  12.81927	  -0.47816
 219.26200	  12.83128	  -0.47880
 219.08300	  12.84023	  -0.47464
 218.90500	  12.82855	  -0.47101
 218.72700	  12.83440	  -0.47214
 218.55000	  12.82885	  -0.48387
 218.37200	  12.83625	  -0.48021
 218.19500	  12.82875	  -0.47979
 218.01800	  12.82540	  -0.47254
 217.84200	  12.83669	  -0.48162
 217.66500	  12.83065	  -0.48535
 217.48900	  12.83048	  -0.49268
 217.31400	  12.83823	  -0.48694
 217.13900	  12.83615	  -0.47632
 216.96400	  12.82394	  -0.47594
 216.78900	  12.83165	  -0.48201
 216.61400	  12.82458	  -0.46356
 216.44000	  12.82749	  -0.47334
 216.26700	  12.82438	  -0.47606
 216.09300	  12.82505	  -0.48018
 215.91900	  12.83281	  -0.47186
 215.74700	  12.81960	  -0.48189
 215.57400	  12.82638	  -0.48059
 215.40100	  12.83289	  -0.47829
 215.22900	  12.84064	  -0.47227
 215.05700	  12.83441	  -0.48572
 214.88600	  12.83012	  -0.47783
 214.71400	  12.83212	  -0.48017
 214.54400	  12.82703	  -0.47952
 214.37300	  12.83354	  -0.48394
 214.20200	  12.81932	  -0.48592
 214.03300	  12.82492	  -0.48890
 213.86200	  12.82265	  -0.48305
 213.69300	  12.82722	  -0.47901
 213.52300	  12.82764	  -0.48334
 213.35500	  12.81703	  -0.47595
 213.18600	  12.82719	  -0.49140
 213.01700	  12.81979	  -0.47977
 212.84700	  12.81619	  -0.48240
 212.67800	  12.81467	  -0.47428
 212.50800	  12.81942	  -0.47819
 212.33900	  12.81276	  -0.47536
 212.17000	  12.80934	  -0.47157
 212.00100	  12.81776	  -0.47783
 211.83400	  12.82235	  -0.47915
 211.66700	  12.82660	  -0.48045
 211.50000	  12.82565	  -0.48073
 211.33200	  12.82666	  -0.48397
 211.16500	  12.82227	  -0.47742
 210.99800	  12.81875	  -0.47684
 210.83200	  12.82091	  -0.48309
 210.66500	  12.82136	  -0.47746
 210.49900	  12.81181	  -0.47533
 210.33300	  12.81900	  -0.47290
 210.16800	  12.81380	  -0.47940
 210.00300	  12.81148	  -0.47407
 209.83700	  12.81649	  -0.47000
 209.67300	  12.81476	  -0.48783
 209.50800	  12.81502	  -0.48491
 209.34400	  12.82118	  -0.48608
 209.18000	  12.81809	  -0.47789
 209.01600	  12.80143	  -0.47631
 208.85300	  12.80748	  -0.47544
 208.69000	  12.80799	  -0.48032
 208.52700	  12.80959	  -0.48200
 208.36400	  12.80988	  -0.48288
 208.20200	  12.81321	  -0.47267
 208.03900	  12.81025	  -0.47218
 207.87700	  12.80203	  -0.48690
 207.71600	  12.79714	  -0.49110
 207.55400	  12.79902	  -0.48004
 207.39300	  12.80849	  -0.48611
 207.23200	  12.80198	  -0.47904
 207.07100	  12.81397	  -0.47897
 206.91100	  12.80368	  -0.47809
 206.75000	  12.81256	  -0.47467
 206.59100	  12.80274	  -0.47347
 206.43100	  12.81359	  -0.47837
 206.27200	  12.81509	  -0.49178
 206.11300	  12.81692	  -0.48066
 205.95400	  12.80877	  -0.48251
 205.79600	  12.80838	  -0.46905
 205.63700	  12.80881	  -0.47811
 205.47900	  12.80260	  -0.48068
 205.32200	  12.80202	  -0.48355
 205.16500	  12.79869	  -0.48374
 205.00700	  12.80114	  -0.48123
 204.85000	  12.81049	  -0.47649
 204.69400	  12.80089	  -0.47958
 204.53700	  12.79743	  -0.47054
 204.38100	  12.79044	  -0.46473
 204.22500	  12.80016	  -0.47516
 204.07000	  12.80358	  -0.47359
 203.91500	  12.80289	  -0.47516
 203.76000	  12.79268	  -0.47494
 203.60500	  12.80151	  -0.47770
 203.45100	  12.81262	  -0.48303
 203.29600	  12.80367	  -0.48780
 203.14300	  12.79716	  -0.48330
 202.98900	  12.79944	  -0.48782
 202.83600	  12.79364	  -0.47718
 202.68300	  12.79142	  -0.47951
 202.53100	  12.80357	  -0.47447
 202.37800	  12.80348	  -0.48712
 202.22500	  12.80255	  -0.47441
 202.07400	  12.79606	  -0.47448
 201.92200	  12.81466	  -0.48522
 201.77000	  12.80724	  -0.47400
 201.61900	  12.79377	  -0.48225
 201.46800	  12.80971	  -0.47659
 201.31700	  12.81403	  -0.47026
 201.16700	  12.79970	  -0.47136
 201.01700	  12.80574	  -0.46745
 200.86700	  12.80864	  -0.46810
 200.71800	  12.80469	  -0.47856
 200.56800	  12.80202	  -0.47620
 200.41900	  12.80088	  -0.47146
 200.27000	  12.80597	  -0.47676
 200.12100	  12.80787	  -0.47837
 199.97300	  12.79695	  -0.47595
 199.82500	  12.79826	  -0.48029
 199.67700	  12.80762	  -0.47649
 199.53000	  12.79050	  -0.47966
 199.38200	  12.80164	  -0.48780
 199.23500	  12.80460	  -0.47926
 199.08900	  12.80816	  -0.47533
 198.94200	  12.79740	  -0.47720
 198.79600	  12.79890	  -0.47582
 198.65000	  12.79875	  -0.47796
 198.50400	  12.80041	  -0.48213
 198.35700	  12.80020	  -0.46894
 198.21000	  12.80690	  -0.47358
 198.06300	  12.79793	  -0.47813
 197.91600	  12.80253	  -0.47149
 197.77000	  12.79712	  -0.47265
 197.62400	  12.79758	  -0.47093
 197.47800	  12.79070	  -0.47678
 197.33200	  12.78377	  -0.47786
 197.18700	  12.79472	  -0.47385
 197.04300	  12.79412	  -0.47213
 196.89800	  12.79170	  -0.47146
 196.75300	  12.79573	  -0.47639
 196.60900	  12.78839	  -0.48466
 196.46400	  12.79309	  -0.46898
 196.32000	  12.78665	  -0.47587
 196.17600	  12.78440	  -0.46879
 196.03300	  12.80469	  -0.47739
 195.89000	  12.79055	  -0.46720
 195.74700	  12.78990	  -0.46743
 195.60500	  12.79586	  -0.48026
 195.46300	  12.79430	  -0.48021
 195.32000	  12.77902	  -0.46984
 195.17900	  12.78754	  -0.47164
 195.03700	  12.79916	  -0.47187
 194.89600	  12.80034	  -0.47545
 194.75400	  12.79345	  -0.47051
 194.61300	  12.78645	  -0.47309
 194.47300	  12.78467	  -0.48439
 194.33300	  12.78584	  -0.48242
 194.19200	  12.79370	  -0.47357
 194.05200	  12.79930	  -0.47082
 193.91200	  12.79826	  -0.46770
 193.77300	  12.79036	  -0.45482
 193.63400	  12.78649	  -0.47464
 193.49500	  12.79428	  -0.48015
 193.35600	  12.79724	  -0.47980
 193.21700	  12.79051	  -0.47166
 193.07900	  12.79924	  -0.47095
 192.94100	  12.79914	  -0.47835
 192.80300	  12.78760	  -0.47709
 192.66500	  12.78596	  -0.47260
 192.52600	  12.78807	  -0.48071
 192.38800	  12.79473	  -0.47061
 192.25000	  12.80150	  -0.46429
 192.11300	  12.79257	  -0.47562
 191.97500	  12.79148	  -0.47021
 191.83800	  12.78776	  -0.47001
 191.70200	  12.79632	  -0.47419
 191.56600	  12.78589	  -0.47408
 191.43000	  12.79065	  -0.46663
 191.29400	  12.79081	  -0.47315
 191.15900	  12.78077	  -0.47195
 191.02400	  12.79534	  -0.48181
 190.89000	  12.80106	  -0.47885
 190.75500	  12.79941	  -0.47879
 190.62000	  12.78509	  -0.47450
 190.48600	  12.79801	  -0.47727
 190.35100	  12.79416	  -0.47675
 190.21700	  12.78660	  -0.46788
 190.08500	  12.79248	  -0.47615
 189.95100	  12.79338	  -0.47765
 189.81800	  12.78897	  -0.47741
 189.68600	  12.78864	  -0.48220
 189.55300	  12.79486	  -0.46857
 189.42100	  12.78983	  -0.47661
 189.28900	  12.79633	  -0.46525
 189.15700	  12.79006	  -0.47332
 189.02600	  12.78928	  -0.47529
 188.89500	  12.79148	  -0.47363
 188.76300	  12.78932	  -0.46083
 188.63300	  12.78882	  -0.47095
 188.50300	  12.79397	  -0.46734
 188.37200	  12.80056	  -0.48193
 188.24100	  12.79988	  -0.48048
 188.11200	  12.79247	  -0.47240
 187.98200	  12.79075	  -0.48163
 187.85200	  12.78740	  -0.47445
 187.72300	  12.79658	  -0.46919
 187.59400	  12.78190	  -0.47150
 187.46500	  12.78443	  -0.47899
 187.33600	  12.78647	  -0.48503
 187.20800	  12.78321	  -0.47861
 187.08000	  12.78949	  -0.48275
 186.95200	  12.78766	  -0.48204
 186.82400	  12.78615	  -0.47382
 186.69600	  12.78998	  -0.49195
 186.56800	  12.79292	  -0.47483
 186.44200	  12.79493	  -0.46501
 186.31500	  12.79765	  -0.47314
 186.18900	  12.79689	  -0.46598
 186.06200	  12.79467	  -0.46935
 185.93600	  12.79004	  -0.47487
 185.81000	  12.77738	  -0.46874
 185.68400	  12.78346	  -0.47790
 185.55800	  12.79156	  -0.47656
 185.43300	  12.78324	  -0.46482
 185.30800	  12.78086	  -0.46151
 185.18300	  12.78152	  -0.47278
 185.05800	  12.77325	  -0.47194
 184.93400	  12.78202	  -0.47955
 184.80900	  12.78624	  -0.47714
 184.68500	  12.79041	  -0.46902
 184.56100	  12.78452	  -0.47974
 184.43700	  12.78996	  -0.47385
 184.31200	  12.79162	  -0.47563
 184.18700	  12.78561	  -0.48310
 184.06200	  12.78088	  -0.49116
 183.93700	  12.77830	  -0.47672
 183.81300	  12.78777	  -0.48359
 183.68900	  12.79455	  -0.47823
 183.56500	  12.79593	  -0.47375
 183.44100	  12.79435	  -0.47539
 183.31800	  12.78657	  -0.48174
 183.19500	  12.78141	  -0.48004
 183.07100	  12.79563	  -0.48600
 182.94800	  12.79993	  -0.47213
 182.82600	  12.79053	  -0.47875
 182.70300	  12.78735	  -0.46567
 182.58000	  12.78963	  -0.46510
 182.45900	  12.79065	  -0.47329
 182.33400	  12.78973	  -0.48023
 182.20800	  12.79175	  -0.46832
 182.08300	  12.79197	  -0.47002
 181.95800	  12.78525	  -0.47408
 181.83400	  12.78770	  -0.47792
 181.71100	  12.78536	  -0.46837
 181.58800	  12.78205	  -0.47868
 181.46500	  12.79527	  -0.47446
 181.34400	  12.78851	  -0.48091
 181.22200	  12.78375	  -0.48423
 181.10200	  12.78812	  -0.48071
 180.98100	  12.78593	  -0.46273
 180.86000	  12.78450	  -0.46966
 180.74100	  12.79176	  -0.47650
 180.62100	  12.78150	  -0.48462
 180.50200	  12.78534	  -0.48230
 180.38200	  12.79498	  -0.47631
 180.26300	  12.79000	  -0.46919
 180.14400	  12.79148	  -0.47147
 180.02600	  12.78752	  -0.46479
 179.90800	  12.78345	  -0.47736
 179.79000	  12.78231	  -0.47922
 179.67200	  12.77045	  -0.47342
 179.55500	  12.78610	  -0.47760
 179.43700	  12.78649	  -0.47618
 179.32000	  12.78149	  -0.47319
 179.20400	  12.77731	  -0.46993
 179.08700	  12.78554	  -0.46769
 178.97000	  12.78566	  -0.46937
 178.85400	  12.78326	  -0.47140
 178.73700	  12.79321	  -0.47174
 178.62200	  12.78932	  -0.46506
 178.50600	  12.79073	  -0.46370
 178.39000	  12.78038	  -0.47800
 178.27500	  12.78092	  -0.46807
 178.15900	  12.78000	  -0.46859
 178.04500	  12.78779	  -0.46719
 177.93000	  12.78302	  -0.46895
 177.81600	  12.78117	  -0.48086
 177.70100	  12.78446	  -0.48112
 177.58700	  12.78081	  -0.46602
 177.47300	  12.78344	  -0.46993
 177.35900	  12.78935	  -0.48608
 177.24500	  12.79105	  -0.48508
 177.13200	  12.77901	  -0.46165
 177.01800	  12.77731	  -0.46859
 176.90500	  12.78014	  -0.47480
 176.79200	  12.77992	  -0.46687
 176.68000	  12.78590	  -0.47100
 176.56700	  12.78329	  -0.47061
 176.45500	  12.77853	  -0.47036
 176.34300	  12.79301	  -0.47267
 176.23100	  12.79123	  -0.47145
 176.11900	  12.79332	  -0.47664
 176.00800	  12.77920	  -0.47973
 175.89700	  12.78055	  -0.47954
 175.78500	  12.78436	  -0.47359
 175.67400	  12.77754	  -0.47110
 175.56300	  12.78219	  -0.47357
 175.45300	  12.78290	  -0.47453
 175.34200	  12.78220	  -0.47675
 175.23200	  12.78044	  -0.46876
 175.12200	  12.77933	  -0.46701
 175.01200	  12.78486	  -0.47554
 174.90200	  12.78578	  -0.47583
 174.79300	  12.78759	  -0.47388
 174.68300	  12.79368	  -0.48037
 174.57400	  12.78466	  -0.47529
 174.46500	  12.78425	  -0.46798
 174.35600	  12.78099	  -0.46784
 174.24700	  12.77958	  -0.47994
 174.13800	  12.78369	  -0.46809
 174.03000	  12.77958	  -0.47100
 173.92200	  12.78382	  -0.47911
 173.81400	  12.78422	  -0.47340
 173.70600	  12.77951	  -0.47341
 173.59800	  12.78378	  -0.46859
 173.49000	  12.78433	  -0.48078
 173.38300	  12.78435	  -0.48018
 173.27500	  12.79227	  -0.47370
 173.16900	  12.78097	  -0.46998
 173.06100	  12.78150	  -0.47338
 172.95500	  12.78090	  -0.47498
 172.84800	  12.78051	  -0.47039
 172.74200	  12.78766	  -0.46368
 172.63600	  12.78555	  -0.47028
 172.53000	  12.78121	  -0.47799
 172.42400	  12.78403	  -0.47450
 172.31900	  12.77844	  -0.47461
 172.21300	  12.77858	  -0.47601
 172.10700	  12.77578	  -0.47427
 172.00200	  12.78384	  -0.47257
 171.89700	  12.78047	  -0.47349
 171.79200	  12.77862	  -0.47564
 171.68800	  12.78997	  -0.47232
 171.58300	  12.78831	  -0.46681
 171.47800	  12.77521	  -0.47329
 171.37300	  12.77065	  -0.47872
 171.26700	  12.79173	  -0.46900
 171.16100	  12.78429	  -0.47075
 171.05700	  12.79176	  -0.47665
 170.95200	  12.78990	  -0.46443
 170.84700	  12.77797	  -0.47503
 170.74300	  12.77436	  -0.47837
 170.63800	  12.78440	  -0.48031
 170.53400	  12.78274	  -0.46993
 170.43000	  12.78355	  -0.47859
 170.32600	  12.78110	  -0.47009
 170.22200	  12.77845	  -0.47277
 170.11800	  12.77632	  -0.47334
 170.01500	  12.78267	  -0.47095
 169.91300	  12.78331	  -0.48370
 169.80900	  12.78107	  -0.47814
 169.70600	  12.77814	  -0.46967
 169.60300	  12.77917	  -0.47403
 169.50000	  12.78145	  -0.47951
 169.39800	  12.78073	  -0.47514
 169.29600	  12.77776	  -0.47928
 169.19400	  12.78949	  -0.46411
 169.09200	  12.78123	  -0.46557
 168.99000	  12.78031	  -0.47203
 168.88800	  12.77915	  -0.47201
 168.78700	  12.78643	  -0.47218
 168.68500	  12.78358	  -0.48187
 168.58400	  12.78867	  -0.47248
 168.48400	  12.78098	  -0.47021
 168.38300	  12.79344	  -0.47133
 168.28200	  12.77928	  -0.47781
 168.18100	  12.77793	  -0.46884
 168.08100	  12.78212	  -0.46792
 167.98000	  12.77837	  -0.48532
 167.88000	  12.78401	  -0.47160
 167.78000	  12.78174	  -0.47745
 167.68000	  12.79059	  -0.46779
 167.58100	  12.78538	  -0.46512
 167.48200	  12.78954	  -0.47049
 167.38200	  12.78388	  -0.47320
 167.28200	  12.78351	  -0.48244
 167.18300	  12.77756	  -0.48025
 167.08500	  12.77329	  -0.46472
 166.98600	  12.77375	  -0.46976
 166.88800	  12.76884	  -0.47425
 166.78900	  12.78311	  -0.47138
 166.69100	  12.77917	  -0.46301
 166.59200	  12.77566	  -0.46227
 166.49500	  12.77529	  -0.46944
 166.39800	  12.77930	  -0.47158
 166.30000	  12.77400	  -0.47960
 166.20300	  12.78567	  -0.47459
 166.10500	  12.78888	  -0.47623
 166.00800	  12.79499	  -0.47491
 165.91100	  12.79297	  -0.46492
 165.81400	  12.78047	  -0.47576
 165.71800	  12.77038	  -0.46553
 165.62100	  12.77704	  -0.46199
 165.52500	  12.77950	  -0.47053
 165.42800	  12.76993	  -0.47170
 165.33200	  12.77387	  -0.47182
 165.23600	  12.78879	  -0.46747
 165.14000	  12.77215	  -0.47378
 165.04500	  12.77807	  -0.48054
 164.94700	  12.78169	  -0.48314
 164.85200	  12.78860	  -0.47060
 164.75600	  12.78282	  -0.46183
 164.66000	  12.78173	  -0.46853
 164.56500	  12.78362	  -0.47036
 164.47100	  12.77592	  -0.48630
 164.37700	  12.78576	  -0.47749
 164.28300	  12.78618	  -0.46120
 164.18900	  12.78141	  -0.46972
 164.09500	  12.77800	  -0.48272
 164.00100	  12.78206	  -0.48158
 163.90700	  12.78196	  -0.47878
 163.81300	  12.78030	  -0.46589
 163.71900	  12.78697	  -0.46694
 163.62600	  12.77698	  -0.46740
 163.53300	  12.78227	  -0.48355
 163.43900	  12.77410	  -0.48517
 163.35300	  12.79363	  -0.47082
 163.26100	  12.78205	  -0.47581
 163.16800	  12.77539	  -0.47362
 163.07500	  12.77701	  -0.47052
 162.98200	  12.78419	  -0.46850
 162.89000	  12.78222	  -0.46386
 162.79900	  12.78810	  -0.46703
 162.70700	  12.78057	  -0.46763
 162.61500	  12.78400	  -0.46637
 162.52300	  12.77661	  -0.46501
 162.43100	  12.78179	  -0.47179
 162.34000	  12.79243	  -0.47135
 162.24800	  12.78482	  -0.47247
 162.15700	  12.77852	  -0.46712
 162.06600	  12.77860	  -0.46251
 161.97400	  12.77036	  -0.46845
 161.88300	  12.76535	  -0.47712
 161.79200	  12.78588	  -0.46545
 161.70100	  12.78517	  -0.47856
 161.61000	  12.78263	  -0.47246
 161.52000	  12.78446	  -0.46544
 161.42900	  12.78511	  -0.46527
 161.33900	  12.77635	  -0.47617
 161.24800	  12.77081	  -0.46422
 161.15600	  12.77647	  -0.47213
 161.06600	  12.77623	  -0.47480
 160.97500	  12.77942	  -0.47250
 160.88500	  12.77169	  -0.47656
 160.79500	  12.77404	  -0.47065
 160.70400	  12.77340	  -0.48019
 160.61200	  12.78585	  -0.47252
 160.52200	  12.78519	  -0.46938
 160.43100	  12.77542	  -0.46117
 160.34000	  12.78043	  -0.47865
 160.25000	  12.77665	  -0.48061
 160.16000	  12.77795	  -0.47696
 160.06900	  12.76669	  -0.47628
 159.97700	  12.78733	  -0.46435
 159.88600	  12.78140	  -0.47490
 159.79600	  12.77804	  -0.47706
 159.70500	  12.76893	  -0.47057
 159.61300	  12.77819	  -0.46900
 159.52100	  12.77040	  -0.47240
 159.42900	  12.77838	  -0.46863
 159.33700	  12.78094	  -0.46596
 159.24300	  12.77905	  -0.47292
 159.15000	  12.77960	  -0.48199
 159.05700	  12.78089	  -0.47138
 158.96400	  12.77858	  -0.47884
 158.86900	  12.77628	  -0.46754
 158.77500	  12.77444	  -0.46364
 158.68100	  12.78050	  -0.46959
 158.58600	  12.77878	  -0.47300
 158.48500	  12.78503	  -0.46433
 158.37700	  12.76032	  -0.47689
 158.27200	  12.77230	  -0.47284
 158.16300	  12.78134	  -0.48231
 158.06100	  12.77721	  -0.47644
 157.96200	  12.78086	  -0.47726
 157.86300	  12.78772	  -0.47860
 157.76400	  12.78056	  -0.47199
 157.66500	  12.77154	  -0.47505
 157.56500	  12.78822	  -0.47649
 157.46500	  12.78561	  -0.47435
 157.36400	  12.78971	  -0.47732
 157.26300	  12.78597	  -0.48337
 157.16200	  12.77247	  -0.46378
 157.06100	  12.77767	  -0.46963
 156.95900	  12.77853	  -0.47570
 156.85600	  12.77109	  -0.47691
 156.75300	  12.77890	  -0.47831
 156.64900	  12.77724	  -0.47429
 156.54500	  12.78718	  -0.45689
 156.44000	  12.78209	  -0.45907
 156.33500	  12.77962	  -0.46511
 156.23000	  12.77598	  -0.46882
 156.12500	  12.76575	  -0.46308
 156.01900	  12.77380	  -0.46645
 155.91300	  12.78243	  -0.47872
 155.80700	  12.78741	  -0.47446
 155.70100	  12.77650	  -0.47776
 155.59500	  12.78448	  -0.47629
 155.48800	  12.77924	  -0.47436
 155.38100	  12.78129	  -0.46618
 155.27300	  12.76976	  -0.46015
 155.15700	  12.77555	  -0.46928
 155.03900	  12.77859	  -0.47970
 154.92300	  12.78565	  -0.47964
 154.81000	  12.78177	  -0.46667
 154.69800	  12.77763	  -0.47859
 154.58700	  12.77220	  -0.47125
 154.47800	  12.77058	  -0.46814
 154.36800	  12.77199	  -0.47479
 154.26000	  12.77654	  -0.48138
 154.15100	  12.77667	  -0.48130
 154.04200	  12.77599	  -0.47882
 153.93200	  12.77080	  -0.46755
 153.82100	  12.77617	  -0.47274
 153.71100	  12.77018	  -0.47000
 153.60000	  12.77360	  -0.47315
 153.48900	  12.77396	  -0.46457
 153.37700	  12.77611	  -0.46653
 153.26600	  12.78128	  -0.47831
 153.15400	  12.78197	  -0.46704
 153.04400	  12.79259	  -0.46846
 152.93300	  12.78496	  -0.47247
 152.82100	  12.77651	  -0.47603
 152.70800	  12.77315	  -0.47938
 152.59200	  12.78380	  -0.48048
 152.47300	  12.77847	  -0.47755
 152.35400	  12.78108	  -0.47755
 152.23600	  12.76837	  -0.47395
 152.12000	  12.76851	  -0.46550
 152.00600	  12.77884	  -0.46661
 151.89300	  12.77912	  -0.46951
 151.78100	  12.78315	  -0.47720
 151.66800	  12.76915	  -0.48556
 151.55500	  12.77390	  -0.46274
 151.44100	  12.76549	  -0.46284
 151.32800	  12.76628	  -0.46389
 151.21400	  12.77977	  -0.47247
 151.10000	  12.78188	  -0.46730
 150.98600	  12.78072	  -0.47396
 150.87200	  12.77525	  -0.47853
 150.75800	  12.78163	  -0.46993
 150.64300	  12.77268	  -0.47230
 150.52900	  12.77601	  -0.47371
 150.41400	  12.78177	  -0.47336
 150.29700	  12.77810	  -0.46784
 150.17800	  12.77493	  -0.46241
 150.06000	  12.76857	  -0.46466
 149.94200	  12.78347	  -0.46530
 149.82100	  12.78234	  -0.47507
 149.70100	  12.78228	  -0.47748
 149.58400	  12.77602	  -0.47008
 149.46900	  12.77132	  -0.47887
 149.35400	  12.77717	  -0.47838
 149.24000	  12.77303	  -0.46851
 149.12500	  12.76540	  -0.47421
 149.01000	  12.77175	  -0.47123
 148.89400	  12.77553	  -0.47586
 148.77800	  12.76889	  -0.46300
 148.66300	  12.77799	  -0.46944
 148.54700	  12.78593	  -0.47095
 148.43100	  12.77655	  -0.46865
 148.31500	  12.76914	  -0.46315
 148.19900	  12.77419	  -0.47444
 148.07700	  12.76996	  -0.47307
 147.94800	  12.77739	  -0.46948
 147.81900	  12.77562	  -0.47774
 147.69200	  12.78303	  -0.47228
 147.56900	  12.77484	  -0.46772
 147.44800	  12.77417	  -0.46813
 147.33000	  12.76411	  -0.47902
 147.21200	  12.77008	  -0.47311
 147.09400	  12.77301	  -0.48088
 146.97600	  12.75945	  -0.46444
 146.85600	  12.77256	  -0.47490
 146.73700	  12.76394	  -0.47464
 146.61800	  12.77089	  -0.45991
 146.49900	  12.77081	  -0.45777
 146.38000	  12.78325	  -0.47244
 146.26100	  12.78108	  -0.46722
 146.14100	  12.77776	  -0.48549
 146.02000	  12.76967	  -0.47122
 145.89600	  12.77769	  -0.47734
 145.77200	  12.77041	  -0.48034
 145.64900	  12.77156	  -0.47361
 145.52800	  12.76914	  -0.49095
 145.40800	  12.77419	  -0.47409
 145.28700	  12.76125	  -0.46691
 145.16500	  12.76147	  -0.46793
 145.04300	  12.76921	  -0.47166
 144.92200	  12.78345	  -0.46984
 144.80200	  12.78310	  -0.47065
 144.68300	  12.77699	  -0.47252
 144.56300	  12.77074	  -0.46787
 144.44400	  12.76448	  -0.46620
 144.32400	  12.78279	  -0.47018
 144.20500	  12.76371	  -0.46522
 144.08600	  12.78384	  -0.47492
 143.96700	  12.77913	  -0.46350
 143.84700	  12.76973	  -0.47060
 143.72800	  12.77600	  -0.46405
 143.60900	  12.76487	  -0.46006
 143.49000	  12.77389	  -0.48104
 143.37000	  12.78100	  -0.47150
 143.24200	  12.77668	  -0.47853
 143.11000	  12.78510	  -0.48086
 142.98000	  12.77559	  -0.46132
 142.83300	  12.76573	  -0.46225
 142.66700	  12.77268	  -0.47496
 142.49900	  12.77212	  -0.47694
 142.33900	  12.78678	  -0.47623
 142.19000	  12.77286	  -0.46880
 142.05300	  12.76552	  -0.47671
 141.92700	  12.76802	  -0.48157
 141.80800	  12.77099	  -0.48250
 141.69300	  12.77864	  -0.46849
 141.57800	  12.78777	  -0.46882
 141.46100	  12.79471	  -0.45926
 141.34200	  12.77236	  -0.46993
 141.22300	  12.77065	  -0.46067
 141.10100	  12.77175	  -0.47001
 140.97900	  12.76694	  -0.46277
 140.85500	  12.76556	  -0.47188
 140.73200	  12.77157	  -0.47320
 140.60700	  12.76573	  -0.48461
 140.48300	  12.76427	  -0.48465
 140.35800	  12.78359	  -0.48140
 140.23200	  12.78471	  -0.47188
 140.10700	  12.76885	  -0.47121
 139.98200	  12.78151	  -0.48279
 139.85700	  12.77676	  -0.47816
 139.73300	  12.76360	  -0.46563
 139.60900	  12.76432	  -0.46415
 139.48400	  12.76757	  -0.46841
 139.36100	  12.77840	  -0.47158
 139.23700	  12.77091	  -0.48299
 139.11400	  12.77014	  -0.47145
 138.99200	  12.77529	  -0.47747
 138.86900	  12.76853	  -0.47124
 138.74500	  12.76458	  -0.47004
 138.59800	  12.76572	  -0.47445
 138.42900	  12.76511	  -0.47631
 138.26300	  12.77689	  -0.46720
 138.11900	  12.76396	  -0.47211
 137.99500	  12.77476	  -0.47290
 137.88100	  12.77151	  -0.46653
 137.76800	  12.77510	  -0.47729
 137.65400	  12.76787	  -0.46422
 137.53700	  12.76766	  -0.47762
 137.41900	  12.77116	  -0.47596
 137.29900	  12.76468	  -0.47609
 137.17700	  12.77143	  -0.47640
 137.05600	  12.77251	  -0.46249
 136.93300	  12.77188	  -0.46641
 136.81000	  12.77488	  -0.48363
 136.68700	  12.77004	  -0.48281
 136.56400	  12.78269	  -0.47297
 136.44100	  12.76966	  -0.46222
 136.31700	  12.77187	  -0.46741
 136.19200	  12.76735	  -0.47201
 136.06900	  12.77691	  -0.47333
 135.94500	  12.77495	  -0.46857
 135.82000	  12.77288	  -0.45156
 135.69700	  12.76389	  -0.46047
 135.57300	  12.77050	  -0.47101
 135.44900	  12.75720	  -0.47359
 135.32500	  12.77314	  -0.47691
 135.20100	  12.76630	  -0.47853
 135.07600	  12.76697	  -0.46826
 134.95300	  12.77222	  -0.47040
 134.82900	  12.77127	  -0.46412
 134.70500	  12.77290	  -0.46193
 134.58100	  12.77140	  -0.46870
 134.45800	  12.77820	  -0.46151
 134.33500	  12.77398	  -0.46261
 134.21100	  12.76623	  -0.47328
 134.08900	  12.76497	  -0.46654
 133.96600	  12.77167	  -0.46326
 133.84300	  12.77118	  -0.46471
 133.72100	  12.76809	  -0.47228
 133.60000	  12.76269	  -0.47382
 133.48000	  12.76453	  -0.47603
 133.36000	  12.76321	  -0.47654
 133.23900	  12.76573	  -0.46316
 133.11900	  12.76584	  -0.48166
 132.99900	  12.76898	  -0.47268
 132.87900	  12.77087	  -0.46523
 132.76000	  12.77092	  -0.47112
 132.64100	  12.76531	  -0.47830
 132.52200	  12.76879	  -0.46794
 132.40400	  12.76633	  -0.47052
 132.28700	  12.76687	  -0.48037
 132.17000	  12.75924	  -0.46657
 132.05300	  12.76164	  -0.47113
 131.93700	  12.76847	  -0.47489
 131.82200	  12.76275	  -0.46933
 131.70700	  12.77085	  -0.47148
 131.59200	  12.77194	  -0.47767
 131.47800	  12.77075	  -0.47890
 131.36500	  12.76279	  -0.47690
 131.25200	  12.76687	  -0.47277
 131.13900	  12.76744	  -0.47509
 131.02800	  12.76128	  -0.46896
 130.91700	  12.76278	  -0.47215
 130.80700	  12.77606	  -0.48118
 130.69600	  12.77046	  -0.47093
 130.58800	  12.77290	  -0.47560
 130.47800	  12.77157	  -0.46901
 130.37000	  12.77435	  -0.47946
 130.26200	  12.76498	  -0.47150
 130.15500	  12.76656	  -0.48037
 130.04800	  12.77351	  -0.48193
 129.94200	  12.76528	  -0.47263
 129.83600	  12.76726	  -0.47178
 129.73100	  12.78067	  -0.47017
 129.62600	  12.76957	  -0.47170
 129.52200	  12.77008	  -0.46945
 129.41700	  12.77438	  -0.48182
 129.31400	  12.76901	  -0.47353
 129.21100	  12.77651	  -0.47826
 129.10800	  12.77043	  -0.46745
 129.00600	  12.77260	  -0.47392
 128.90300	  12.76257	  -0.47437
 128.80200	  12.76171	  -0.47122
 128.70100	  12.77085	  -0.47953
 128.59900	  12.77957	  -0.47332
 128.49900	  12.76491	  -0.47591
 128.39600	  12.76483	  -0.47677
 128.28600	  12.76079	  -0.47770
 128.17700	  12.76791	  -0.47498
 128.07000	  12.77193	  -0.46887
 127.96300	  12.76859	  -0.47129
 127.85900	  12.76790	  -0.47399
 127.75700	  12.76410	  -0.46937
 127.65400	  12.76852	  -0.46910
 127.55300	  12.76325	  -0.47182
 127.44900	  12.76857	  -0.47134
 127.34500	  12.76618	  -0.46853
 127.24200	  12.76594	  -0.47123
 127.13700	  12.76673	  -0.47985
 127.03200	  12.76751	  -0.47337
 126.92700	  12.76563	  -0.47529
 126.82300	  12.77176	  -0.46939
 126.71600	  12.75582	  -0.46983
 126.61100	  12.75426	  -0.47278
 126.50400	  12.75796	  -0.47497
 126.39800	  12.76245	  -0.47673
 126.29100	  12.76578	  -0.46969
 126.18400	  12.76502	  -0.47746
 126.07600	  12.76950	  -0.47807
 125.96800	  12.75567	  -0.47691
 125.86000	  12.75588	  -0.46959
 125.75200	  12.76764	  -0.47114
 125.64400	  12.77463	  -0.47474
 125.53500	  12.76145	  -0.47361
 125.42700	  12.77023	  -0.48237
 125.31700	  12.76422	  -0.47428
 125.20800	  12.76699	  -0.47380
 125.10000	  12.76705	  -0.46260
 124.99000	  12.76996	  -0.46796
 124.88000	  12.76420	  -0.47725
 124.77100	  12.76434	  -0.47047
 124.66200	  12.75990	  -0.48357
 124.55300	  12.77408	  -0.48035
 124.44300	  12.77500	  -0.47913
 124.33400	  12.76855	  -0.47872
 124.22500	  12.76185	  -0.47472
 124.11500	  12.76441	  -0.47729
 124.00600	  12.76946	  -0.47807
 123.89800	  12.76845	  -0.46625
 123.79000	  12.76677	  -0.47504
 123.68100	  12.76575	  -0.47884
 123.57300	  12.76990	  -0.46920
 123.46500	  12.76594	  -0.47136
 123.35800	  12.76540	  -0.47814
 123.25100	  12.76793	  -0.47921
 123.14400	  12.76425	  -0.47586
 123.03800	  12.76084	  -0.46822
 122.93200	  12.75623	  -0.47793
 122.82700	  12.77377	  -0.46670
 122.72200	  12.76154	  -0.47051
 122.61700	  12.76407	  -0.47448
 122.51400	  12.75647	  -0.47616
 122.41000	  12.75386	  -0.47490
 122.30700	  12.76531	  -0.47118
 122.20500	  12.76411	  -0.47522
 122.10300	  12.75815	  -0.47214
 122.00300	  12.76319	  -0.47287
 121.90200	  12.75741	  -0.48255
 121.80200	  12.77041	  -0.46995
 121.70300	  12.77043	  -0.47625
 121.60400	  12.76457	  -0.47352
 121.50600	  12.76125	  -0.47277
 121.40800	  12.77682	  -0.47779
 121.31100	  12.76598	  -0.47391
 121.21400	  12.77098	  -0.47324
 121.11800	  12.75867	  -0.48385
 121.01700	  12.75510	  -0.48927
 120.91500	  12.75683	  -0.48740
 120.81200	  12.76512	  -0.47139
 120.71500	  12.75610	  -0.47467
 120.61900	  12.75704	  -0.48001
 120.52300	  12.76194	  -0.48441
 120.42700	  12.75196	  -0.47589
 120.33100	  12.76384	  -0.47153
 120.23700	  12.75707	  -0.47050
 120.14400	  12.75481	  -0.46970
 120.04900	  12.76700	  -0.46894
 119.95400	  12.76830	  -0.47557
 119.85800	  12.75929	  -0.48091
 119.76300	  12.76309	  -0.47167
 119.66600	  12.76279	  -0.48038
 119.57100	  12.76427	  -0.47948
 119.47500	  12.77294	  -0.48280
 119.37900	  12.76013	  -0.47374
 119.28300	  12.75965	  -0.47879
 119.18600	  12.75533	  -0.47385
 119.08900	  12.75988	  -0.47410
 118.99300	  12.76309	  -0.47996
 118.89600	  12.76508	  -0.46755
 118.79800	  12.77414	  -0.46960
 118.70000	  12.75379	  -0.47081
 118.60300	  12.75119	  -0.47052
 118.50500	  12.75189	  -0.47261
 118.40700	  12.76433	  -0.46706
 118.31000	  12.76496	  -0.48202
 118.21100	  12.75926	  -0.47996
 118.11300	  12.75825	  -0.47021
 118.01500	  12.75990	  -0.47518
 117.91500	  12.75483	  -0.48038
 117.81500	  12.75916	  -0.47567
 117.71500	  12.76160	  -0.48395
 117.61600	  12.76177	  -0.47994
 117.51700	  12.76316	  -0.47321
 117.41700	  12.75994	  -0.46510
 117.31800	  12.75548	  -0.47007
 117.21800	  12.75740	  -0.47476
 117.11900	  12.75932	  -0.48275
 117.02000	  12.76144	  -0.46886
 116.92200	  12.75141	  -0.47748
 116.82400	  12.75680	  -0.47773
 116.72500	  12.76472	  -0.47599
 116.62800	  12.75814	  -0.47479
 116.53200	  12.76449	  -0.47594
 116.43600	  12.76156	  -0.47412
 116.34100	  12.76528	  -0.47298
 116.24500	  12.76380	  -0.47139
 116.15000	  12.76404	  -0.46994
 116.05700	  12.76184	  -0.46427
 115.96200	  12.77031	  -0.47757
 115.86800	  12.76030	  -0.47531
 115.77600	  12.76226	  -0.48223
 115.68300	  12.76525	  -0.48071
 115.59100	  12.75884	  -0.47986
 115.50000	  12.76349	  -0.48368
 115.40900	  12.76237	  -0.47027
 115.33000	  12.75290	  -0.46899
 115.24300	  12.75405	  -0.47460
 115.15400	  12.75404	  -0.47635
 115.06500	  12.75248	  -0.47135
 114.97700	  12.76095	  -0.46687
 114.88600	  12.75594	  -0.47690
 114.79100	  12.76984	  -0.47542
 114.69700	  12.76143	  -0.47524
 114.60400	  12.76004	  -0.47946
 114.51400	  12.76169	  -0.48272
 114.42600	  12.76031	  -0.47754
 114.33700	  12.75934	  -0.48744
 114.25000	  12.75351	  -0.47473
 114.16300	  12.76381	  -0.47912
 114.07600	  12.75881	  -0.47000
 113.98900	  12.76903	  -0.48003
 113.90000	  12.75720	  -0.48811
 113.81300	  12.75160	  -0.47795
 113.72500	  12.75627	  -0.48561
 113.63700	  12.75379	  -0.47795
 113.54900	  12.76282	  -0.47552
 113.45900	  12.75402	  -0.48255
 113.36900	  12.75856	  -0.48195
 113.28000	  12.76700	  -0.47783
 113.18900	  12.76281	  -0.47405
 113.09900	  12.75345	  -0.48202
 113.00900	  12.76170	  -0.48737
 112.91700	  12.76347	  -0.47386
 112.82600	  12.75636	  -0.47903
 112.73400	  12.76462	  -0.47449
 112.64200	  12.76462	  -0.47118
 112.55000	  12.75055	  -0.48034
 112.45700	  12.75191	  -0.47564
 112.36300	  12.75721	  -0.48397
 112.27000	  12.76989	  -0.47547
 112.17700	  12.75802	  -0.47479
 112.08200	  12.74952	  -0.47586
 111.98700	  12.74444	  -0.47590
 111.89300	  12.74779	  -0.46632
 111.79800	  12.75815	  -0.48365
 111.70200	  12.75008	  -0.47736
 111.59400	  12.75010	  -0.47661
 111.49500	  12.75880	  -0.47867
 111.39900	  12.76958	  -0.47347
 111.30300	  12.75663	  -0.48080
 111.20600	  12.75475	  -0.47807
 111.10900	  12.75728	  -0.48167
 111.01200	  12.75737	  -0.48169
 110.91800	  12.74854	  -0.47413
 110.82100	  12.75922	  -0.47161
 110.72400	  12.75724	  -0.48093
 110.62700	  12.76081	  -0.48002
 110.52900	  12.76389	  -0.47634
 110.43000	  12.75959	  -0.47622
 110.33100	  12.75873	  -0.47608
 110.23200	  12.76324	  -0.47425
 110.13300	  12.75863	  -0.47461
 110.03300	  12.75779	  -0.47455
 109.93300	  12.76104	  -0.47577
 109.83300	  12.75887	  -0.47115
 109.73400	  12.76522	  -0.46914
 109.63300	  12.75162	  -0.47823
 109.53300	  12.75564	  -0.48361
 109.43200	  12.75961	  -0.47143
 109.33100	  12.75368	  -0.47125
 109.23000	  12.75665	  -0.48165
 109.13000	  12.75334	  -0.47834
 109.02800	  12.74906	  -0.48485
 108.92600	  12.74720	  -0.48320
 108.82300	  12.76025	  -0.47875
 108.72100	  12.76000	  -0.48322
 108.61800	  12.75751	  -0.46935
 108.51500	  12.76050	  -0.46937
 108.41300	  12.75620	  -0.48313
 108.31100	  12.74944	  -0.47273
 108.20900	  12.75021	  -0.47090
 108.10800	  12.74611	  -0.47389
 108.00800	  12.75704	  -0.48538
 107.90700	  12.76002	  -0.47495
 107.80700	  12.74803	  -0.47104
 107.70700	  12.74859	  -0.48846
 107.60800	  12.75056	  -0.48702
 107.50900	  12.73874	  -0.48535
 107.41000	  12.74765	  -0.47508
 107.31200	  12.75556	  -0.48198
 107.21400	  12.74397	  -0.47897
 107.11300	  12.76415	  -0.48185
 107.01100	  12.75320	  -0.47321
 106.91000	  12.75449	  -0.46621
 106.81000	  12.76051	  -0.48742
 106.70900	  12.76211	  -0.48391
 106.60900	  12.76269	  -0.46775
 106.51000	  12.75388	  -0.47536
 106.41300	  12.75030	  -0.48484
 106.31500	  12.74656	  -0.47361
 106.21600	  12.74980	  -0.47555
 106.11800	  12.76024	  -0.48096
 106.02000	  12.75124	  -0.47558
 105.92000	  12.74224	  -0.47159
 105.82100	  12.74272	  -0.47821
 105.72000	  12.75311	  -0.47885
 105.62100	  12.75867	  -0.47326
 105.52000	  12.75594	  -0.47834
 105.41900	  12.74737	  -0.48412
 105.31800	  12.76490	  -0.47611
 105.21800	  12.75164	  -0.46951
 105.11600	  12.75299	  -0.48232
 105.01600	  12.75774	  -0.48309
 104.91500	  12.75286	  -0.48158
 104.81400	  12.75563	  -0.47761
 104.71300	  12.76264	  -0.47564
 104.61300	  12.74555	  -0.47568
 104.51200	  12.74527	  -0.46903
 104.40800	  12.75199	  -0.48194
 104.30300	  12.74868	  -0.48182
 104.20100	  12.75845	  -0.47113
 104.09900	  12.75772	  -0.48014
 103.99400	  12.74680	  -0.48739
 103.88700	  12.75488	  -0.47850
 103.78600	  12.75773	  -0.48042
 103.68600	  12.74414	  -0.48320
 103.58700	  12.74999	  -0.48082
 103.48700	  12.75563	  -0.48057
 103.38700	  12.75496	  -0.47103
 103.28700	  12.74785	  -0.48167
 103.18500	  12.75373	  -0.47044
 103.07900	  12.75416	  -0.48014
 102.97600	  12.75168	  -0.47664
 102.87500	  12.74926	  -0.48397
 102.77300	  12.74762	  -0.47885
 102.67100	  12.75242	  -0.47120
 102.56800	  12.74991	  -0.47320
 102.46600	  12.75916	  -0.47244
 102.36300	  12.74096	  -0.47148
 102.26100	  12.75673	  -0.48545
 102.15900	  12.74245	  -0.48155
 102.05800	  12.73911	  -0.47557
 101.95600	  12.74980	  -0.47467
 101.85400	  12.74813	  -0.48004
 101.75100	  12.74489	  -0.48620
 101.64700	  12.75384	  -0.48052
 101.54400	  12.74820	  -0.48171
 101.44100	  12.74984	  -0.48004
 101.33800	  12.75502	  -0.47958
 101.23500	  12.76711	  -0.48112
 101.13200	  12.76029	  -0.48776
 101.02900	  12.75448	  -0.48128
 100.92600	  12.75140	  -0.48021
 100.82200	  12.75241	  -0.48171
 100.71800	  12.75092	  -0.48097
 100.61500	  12.75425	  -0.48586
 100.51100	  12.75376	  -0.47681
 100.40700	  12.75653	  -0.48609
 100.30300	  12.75680	  -0.47268
 100.19800	  12.74867	  -0.47760
 100.09400	  12.74874	  -0.47475
  99.99000	  12.75683	  -0.47273
  99.88500	  12.75367	  -0.46902
  99.74400	  12.75539	  -0.47659
  99.57400	  12.75335	  -0.47324
  99.40800	  12.74046	  -0.48334
  99.26400	  12.74948	  -0.47908
  99.13800	  12.74279	  -0.48680
  99.02200	  12.75023	  -0.49383
  98.92200	  12.74786	  -0.48347
  98.83200	  12.74462	  -0.47736
  98.74300	  12.74744	  -0.47624
  98.65100	  12.75258	  -0.47609
  98.55300	  12.75186	  -0.47569
  98.45200	  12.75209	  -0.47630
  98.34800	  12.75412	  -0.48305
  98.24000	  12.75314	  -0.47928
  98.13300	  12.74789	  -0.47355
  98.02600	  12.74770	  -0.47334
  97.91800	  12.75479	  -0.47455
  97.81000	  12.75339	  -0.47781
  97.70100	  12.75951	  -0.47273
  97.59200	  12.74692	  -0.47716
  97.48300	  12.75103	  -0.48173
  97.37300	  12.75341	  -0.48275
  97.26300	  12.75222	  -0.48805
  97.15400	  12.74605	  -0.47671
  97.04500	  12.75474	  -0.48506
  96.93400	  12.75126	  -0.48715
  96.82400	  12.76159	  -0.48421
  96.71500	  12.75054	  -0.48369
  96.60500	  12.75418	  -0.48053
  96.49500	  12.75181	  -0.47524
  96.38600	  12.74164	  -0.47785
  96.27600	  12.75463	  -0.48352
  96.16800	  12.76317	  -0.48159
  96.05800	  12.74643	  -0.47630
  95.94900	  12.74463	  -0.49120
  95.84000	  12.75452	  -0.47482
  95.73100	  12.75813	  -0.47468
  95.62300	  12.75817	  -0.48330
  95.51500	  12.74767	  -0.48631
  95.40700	  12.75121	  -0.47222
  95.29900	  12.75287	  -0.48327
  95.19100	  12.75143	  -0.47864
  95.08500	  12.74166	  -0.48631
  94.97800	  12.74596	  -0.48545
  94.87100	  12.75107	  -0.48636
  94.76400	  12.76250	  -0.47918
  94.65700	  12.75813	  -0.47609
  94.55000	  12.75167	  -0.47648
  94.44400	  12.74374	  -0.48443
  94.33800	  12.75335	  -0.48937
  94.23200	  12.75045	  -0.48407
  94.12700	  12.74520	  -0.47692
  94.02200	  12.74749	  -0.46986
  93.91800	  12.74930	  -0.48154
  93.81300	  12.75547	  -0.48564
  93.70900	  12.74497	  -0.48024
  93.60500	  12.74031	  -0.48713
  93.50100	  12.74717	  -0.48549
  93.39600	  12.74873	  -0.47974
  93.29000	  12.74864	  -0.48272
  93.18500	  12.74609	  -0.48737
  93.08000	  12.74957	  -0.48155
  92.97400	  12.74817	  -0.49070
  92.86900	  12.75342	  -0.48498
  92.76500	  12.74782	  -0.47753
  92.66100	  12.74875	  -0.48240
  92.55700	  12.75094	  -0.48058
  92.45200	  12.74852	  -0.48572
  92.34900	  12.74051	  -0.48553
  92.24500	  12.75301	  -0.47994
  92.14200	  12.74984	  -0.47906
  92.03800	  12.75634	  -0.48652
  91.93500	  12.74688	  -0.48145
  91.83300	  12.74516	  -0.47593
  91.73000	  12.73843	  -0.47228
  91.62700	  12.74087	  -0.47630
  91.52500	  12.73578	  -0.48688
  91.42300	  12.74258	  -0.48504
  91.32100	  12.73746	  -0.47972
  91.21900	  12.75000	  -0.48791
  91.11700	  12.74086	  -0.48791
  91.01500	  12.74651	  -0.47703
  90.91400	  12.74807	  -0.47918
  90.81200	  12.74816	  -0.47559
  90.71100	  12.74995	  -0.48645
  90.61000	  12.74420	  -0.48772
  90.50900	  12.74564	  -0.48932
  90.40800	  12.75009	  -0.48520
  90.30800	  12.75020	  -0.48094
  90.20700	  12.74567	  -0.47599
  90.10700	  12.74953	  -0.47883
  90.00800	  12.74188	  -0.48554
  89.90900	  12.73481	  -0.48146
  89.81100	  12.73515	  -0.47945
  89.71200	  12.74430	  -0.48394
  89.61500	  12.73760	  -0.48930
  89.51700	  12.74010	  -0.47595
  89.42000	  12.73524	  -0.48201
  89.32400	  12.73298	  -0.47822
  89.22800	  12.74467	  -0.47720
  89.13300	  12.75534	  -0.48277
  89.04100	  12.74828	  -0.46621
  88.94800	  12.74117	  -0.48271
  88.85500	  12.74650	  -0.47815
  88.76400	  12.74337	  -0.48859
  88.67300	  12.73680	  -0.48060
  88.58200	  12.74049	  -0.47845
  88.50700	  12.73957	  -0.48535
  88.42100	  12.75464	  -0.48381
  88.33200	  12.74812	  -0.48523
  88.24500	  12.75022	  -0.49019
  88.15700	  12.74344	  -0.49407
  88.07000	  12.73324	  -0.48548
  87.98400	  12.73107	  -0.47598
  87.89700	  12.73170	  -0.48124
  87.81300	  12.73679	  -0.47484
  87.72900	  12.73929	  -0.47908
  87.64400	  12.73851	  -0.47950
  87.56100	  12.74561	  -0.49099
  87.47600	  12.74905	  -0.47185
  87.39300	  12.74385	  -0.48421
  87.31000	  12.74242	  -0.48239
  87.21800	  12.74922	  -0.49035
  87.12400	  12.74203	  -0.48835
  87.03400	  12.73798	  -0.48687
  86.94300	  12.74855	  -0.47917
  86.85800	  12.74130	  -0.48462
  86.77100	  12.73424	  -0.47456
  86.68500	  12.73823	  -0.47875
  86.59800	  12.74154	  -0.47590
  86.51000	  12.74463	  -0.47835
  86.42200	  12.73677	  -0.48394
  86.33600	  12.73991	  -0.48436
  86.24800	  12.74786	  -0.47662
  86.15900	  12.74302	  -0.48693
  86.06600	  12.73679	  -0.49679
  85.97100	  12.74450	  -0.48029
  85.87700	  12.74637	  -0.47398
  85.78100	  12.73623	  -0.48229
  85.67200	  12.73398	  -0.47242
  85.57500	  12.73608	  -0.48043
  85.47900	  12.73030	  -0.48530
  85.38300	  12.73172	  -0.48738
  85.28700	  12.73608	  -0.48386
  85.19000	  12.73084	  -0.48956
  85.09300	  12.74126	  -0.48854
  84.99500	  12.74757	  -0.48555
  84.89600	  12.74269	  -0.47746
  84.79700	  12.73777	  -0.48197
  84.69700	  12.74432	  -0.48127
  84.59600	  12.73924	  -0.48762
  84.49600	  12.73648	  -0.48592
  84.39600	  12.73683	  -0.48181
  84.29400	  12.73709	  -0.47242
  84.19300	  12.74825	  -0.48681
  84.09100	  12.74800	  -0.48346
  83.98900	  12.74582	  -0.48633
  83.88900	  12.74948	  -0.49162
  83.78900	  12.73881	  -0.47520
  83.68900	  12.73991	  -0.48355
  83.58900	  12.72988	  -0.48514
  83.48600	  12.73353	  -0.48923
  83.38300	  12.73325	  -0.50035
  83.28000	  12.74267	  -0.47516
  83.17500	  12.73780	  -0.47963
  83.06500	  12.74321	  -0.49163
  82.95600	  12.73846	  -0.48553
  82.85100	  12.72469	  -0.48185
  82.74600	  12.73966	  -0.48113
  82.64400	  12.73000	  -0.49715
  82.54300	  12.74013	  -0.48361
  82.44200	  12.73544	  -0.49124
  82.34200	  12.74567	  -0.48606
  82.24200	  12.74064	  -0.48452
  82.14100	  12.74154	  -0.49317
  82.03900	  12.73932	  -0.46863
  81.93700	  12.73680	  -0.48759
  81.82000	  12.73995	  -0.48621
  81.70500	  12.74301	  -0.49026
  81.60000	  12.72673	  -0.48566
  81.49900	  12.73266	  -0.48416
  81.39000	  12.74911	  -0.48315
  81.28000	  12.73190	  -0.48267
  81.17400	  12.73360	  -0.49056
  81.07100	  12.72891	  -0.47872
  80.96700	  12.73339	  -0.48317
  80.86100	  12.74230	  -0.48774
  80.75200	  12.74346	  -0.48864
  80.64500	  12.73472	  -0.49314
  80.53600	  12.73577	  -0.47824
  80.42700	  12.72963	  -0.47384
  80.31800	  12.73933	  -0.48246
  80.20900	  12.74605	  -0.48676
  80.10000	  12.73962	  -0.48286
  79.99200	  12.74528	  -0.48437
  79.88300	  12.74577	  -0.48715
  79.77400	  12.72846	  -0.49945
  79.66400	  12.73527	  -0.48652
  79.55400	  12.71184	  -0.46420
  79.44400	  12.69394	  -0.43989
  79.32600	  12.63192	  -0.40877
  79.21000	  12.43856	  -0.23196
  79.10100	  11.78509	   0.17734
  78.98700	  10.63621	   0.66823
  78.87800	   9.25252	   0.89472
  78.76300	   8.01569	   0.91426
  78.65600	   6.78483	   0.92002
  78.55000	   5.66544	   0.82214
  78.44500	   4.92813	   0.52740
  78.34200	   4.53983	   0.20986
  78.23700	   4.30618	   0.05734
  78.12800	   4.14713	  -0.00341
  78.02400	   4.04648	  -0.05949
  77.91000	   3.97476	  -0.09425
  77.73400	   3.93936	  -0.10747
  77.53100	   3.89655	  -0.10895
  77.34000	   3.84710	  -0.10357
  77.19200	   3.81278	  -0.10462
  77.09000	   3.76388	  -0.11388
  76.99600	   3.71569	  -0.10441
  76.90400	   3.69230	  -0.10708
  76.81200	   3.66474	  -0.10568
  76.71500	   3.61990	  -0.10289
  76.61300	   3.58914	  -0.09785
  76.50800	   3.55231	  -0.09889
  76.40000	   3.52677	  -0.08602
  76.29000	   3.50971	  -0.10568
  76.18000	   3.48386	  -0.10679
  76.06800	   3.47933	  -0.11222
  75.95500	   3.45829	  -0.11608
  75.84200	   3.44029	  -0.11229
  75.72700	   3.42215	  -0.11887
  75.60800	   3.40739	  -0.12571
  75.49400	   3.39437	  -0.12199
  75.38100	   3.38305	  -0.11806
  75.26700	   3.38843	  -0.11505
  75.15300	   3.36892	  -0.10575
  75.04000	   3.36621	  -0.11875
  74.92700	   3.34627	  -0.11520
  74.81200	   3.34062	  -0.11483
  74.69800	   3.33236	  -0.12005
  74.58500	   3.32956	  -0.12653
  74.47100	   3.31033	  -0.11919
  74.35700	   3.32225	  -0.12530
  74.24400	   3.31241	  -0.12937
  74.13100	   3.30895	  -0.11600
  74.01900	   3.29944	  -0.11838
  73.90700	   3.28799	  -0.11217
  73.79500	   3.28779	  -0.12575
  73.68400	   3.28126	  -0.11624
  73.57300	   3.27345	  -0.11889
  73.46300	   3.27441	  -0.11864
  73.35300	   3.27235	  -0.11758
  73.24300	   3.25965	  -0.11862
  73.13400	   3.24760	  -0.11496
  73.02400	   3.25032	  -0.11310
  72.91600	   3.24868	  -0.11726
  72.80700	   3.24148	  -0.12454
  72.69900	   3.24763	  -0.11579
  72.59000	   3.24227	  -0.11586
  72.48300	   3.23815	  -0.12064
  72.37500	   3.23746	  -0.10850
  72.26800	   3.23435	  -0.11277
  72.16200	   3.23209	  -0.11524
  72.05500	   3.21868	  -0.11996
  71.94900	   3.22863	  -0.11022
  71.84300	   3.21620	  -0.11538
  71.73800	   3.21205	  -0.11594
  71.63300	   3.20942	  -0.11985
  71.52700	   3.20225	  -0.11651
  71.42300	   3.20755	  -0.10837
  71.31800	   3.20686	  -0.12244
  71.21500	   3.20183	  -0.11456
  71.11100	   3.20054	  -0.10961
  71.00800	   3.20080	  -0.11250
  70.90500	   3.19680	  -0.10567
  70.80300	   3.19711	  -0.10923
  70.70000	   3.19187	  -0.11830
  70.59800	   3.18462	  -0.11407
  70.49700	   3.18894	  -0.11786
  70.39500	   3.19958	  -0.12221
  70.29400	   3.19059	  -0.11992
  70.19400	   3.18456	  -0.11969
  70.09500	   3.17993	  -0.10233
  69.98200	   3.18215	  -0.11390
  69.88700	   3.17143	  -0.10186
  69.79300	   3.17052	  -0.11080
  69.70200	   3.17044	  -0.11710
  69.61200	   3.16509	  -0.10799
  69.52300	   3.16392	  -0.12277
  69.42900	   3.17159	  -0.12367
  69.35600	   3.16705	  -0.12777
  69.27100	   3.16937	  -0.12784
  69.18100	   3.15874	  -0.10843
  69.08900	   3.16128	  -0.11991
  68.99800	   3.15853	  -0.12482
  68.90600	   3.14885	  -0.11958
  68.81000	   3.15172	  -0.11602
  68.70200	   3.15737	  -0.12939
  68.60600	   3.14227	  -0.11776
  68.51400	   3.15981	  -0.12385
  68.42200	   3.15444	  -0.11920
  68.32900	   3.15395	  -0.12247
  68.23800	   3.14577	  -0.11798
  68.16200	   3.14605	  -0.11909
  68.07300	   3.13647	  -0.11430
  67.97900	   3.14901	  -0.11298
  67.88600	   3.14314	  -0.11017
  67.79300	   3.14388	  -0.11548
  67.70000	   3.14774	  -0.10453
  67.60600	   3.13997	  -0.11814
  67.51100	   3.14809	  -0.11637
  67.41500	   3.14784	  -0.12286
  67.30200	   3.13553	  -0.11309
  67.19800	   3.13355	  -0.11746
  67.06900	   3.13287	  -0.11679
  66.97000	   3.12945	  -0.11951
  66.88100	   3.13081	  -0.11890
  66.79000	   3.13413	  -0.12063
  66.69400	   3.13684	  -0.12018
  66.59800	   3.14146	  -0.11036
  66.50100	   3.12691	  -0.11352
  66.40700	   3.12185	  -0.11258
  66.31100	   3.13043	  -0.12425
  66.21600	   3.12827	  -0.11594
  66.12100	   3.12526	  -0.12836
  66.02300	   3.12916	  -0.11841
  65.92800	   3.12587	  -0.12074
  65.83300	   3.12182	  -0.11614
  65.73600	   3.13336	  -0.10457
  65.63800	   3.12827	  -0.11760
  65.54100	   3.12334	  -0.12172
  65.44100	   3.11507	  -0.11322
  65.34300	   3.12528	  -0.11067
  65.24400	   3.12731	  -0.11288
  65.14300	   3.12200	  -0.11332
  65.04200	   3.12616	  -0.12317
  64.94100	   3.12208	  -0.11851
  64.83900	   3.11672	  -0.11792
  64.73600	   3.11286	  -0.11517
  64.63300	   3.11067	  -0.10654
  64.53000	   3.11227	  -0.11650
  64.42700	   3.12025	  -0.11840
  64.32300	   3.11486	  -0.12564
  64.21900	   3.11229	  -0.11511
  64.11700	   3.10930	  -0.11522
  64.01300	   3.10259	  -0.11317
  63.91200	   3.10638	  -0.11194
  63.80900	   3.11287	  -0.12081
  63.70600	   3.10005	  -0.11477
  63.60300	   3.10242	  -0.12607
  63.50000	   3.09788	  -0.10837
  63.39600	   3.10529	  -0.11740
  63.29200	   3.10819	  -0.11492
  63.18800	   3.10279	  -0.11124
  63.08300	   3.09755	  -0.12640
  62.97900	   3.10338	  -0.10952
  62.87200	   3.10185	  -0.11630
  62.76600	   3.10866	  -0.12894
  62.65900	   3.09661	  -0.12335
  62.55200	   3.09640	  -0.11221
  62.44500	   3.09864	  -0.11852
  62.33900	   3.10539	  -0.10277
  62.23200	   3.10151	  -0.11541
  62.12500	   3.10166	  -0.11459
  62.01800	   3.10145	  -0.11832
  61.91100	   3.09413	  -0.12384
  61.80400	   3.09094	  -0.11874
  61.69900	   3.09778	  -0.12001
  61.59500	   3.09434	  -0.11580
  61.49100	   3.08089	  -0.11668
  61.38900	   3.09981	  -0.12176
  61.28700	   3.09718	  -0.12218
  61.18400	   3.10650	  -0.11460
  61.08000	   3.09924	  -0.11544
  60.97700	   3.09394	  -0.11737
  60.87400	   3.08525	  -0.11047
  60.76900	   3.08683	  -0.11863
  60.66600	   3.08986	  -0.12238
  60.56200	   3.08827	  -0.11452
  60.45800	   3.08463	  -0.11063
  60.35500	   3.08232	  -0.11283
  60.25100	   3.08380	  -0.12438
  60.14800	   3.09212	  -0.11974
  60.04400	   3.08186	  -0.11351
  59.94000	   3.08762	  -0.12412
  59.83700	   3.08381	  -0.12627
  59.73400	   3.08354	  -0.12619
  59.63100	   3.08140	  -0.11921
  59.52800	   3.08360	  -0.11674
  59.42400	   3.09045	  -0.11306
  59.32100	   3.07584	  -0.11858
  59.21700	   3.08457	  -0.11717
  59.11400	   3.08260	  -0.11709
  59.01000	   3.07519	  -0.10755
  58.90800	   3.08140	  -0.12432
  58.80700	   3.09041	  -0.11802
  58.70700	   3.08329	  -0.12395
  58.60800	   3.08020	  -0.12507
  58.51000	   3.07497	  -0.12479
  58.41300	   3.08915	  -0.12689
  58.31600	   3.08112	  -0.11686
  58.21700	   3.07534	  -0.11525
  58.11900	   3.08185	  -0.12087
  58.01900	   3.08443	  -0.11455
  57.92000	   3.07792	  -0.11500
  57.82100	   3.08180	  -0.12605
  57.72200	   3.08038	  -0.12135
  57.62400	   3.08662	  -0.11750
  57.52500	   3.07731	  -0.11548
  57.42700	   3.07227	  -0.12253
  57.32800	   3.06841	  -0.12042
  57.22900	   3.07403	  -0.12257
  57.13200	   3.08312	  -0.12714
  57.03600	   3.08328	  -0.12247
  56.94100	   3.07785	  -0.12163
  56.84900	   3.08037	  -0.12358
  56.75900	   3.06854	  -0.12192
  56.67200	   3.07070	  -0.12060
  56.58700	   3.06658	  -0.13015
  56.50300	   3.07431	  -0.12587
  56.42300	   3.07421	  -0.11304
  56.34500	   3.08397	  -0.10480
  56.26800	   3.07364	  -0.11575
  56.19400	   3.07388	  -0.11646
  56.12300	   3.06480	  -0.11701
  56.05300	   3.06489	  -0.12472
  55.98600	   3.06832	  -0.11588
  55.92200	   3.07023	  -0.11991
  55.86000	   3.08060	  -0.12012
  55.80000	   3.08209	  -0.11361
  55.74100	   3.06814	  -0.11756
  55.68400	   3.06696	  -0.11402
  55.63000	   3.07065	  -0.11557
  55.57700	   3.07070	  -0.12070
  55.52600	   3.06772	  -0.12745
  55.47700	   3.06788	  -0.12206
  55.42900	   3.05948	  -0.11536
  55.38200	   3.07137	  -0.11460
  55.33800	   3.07851	  -0.12017
  55.29300	   3.07154	  -0.12377
  55.25100	   3.06614	  -0.11919
  55.21000	   3.05863	  -0.11585
  55.17000	   3.06297	  -0.11647
  55.13100	   3.06196	  -0.11738
  55.09500	   3.07317	  -0.11662
  55.05800	   3.06211	  -0.12228
  55.02200	   3.06860	  -0.11792
  54.98700	   3.06606	  -0.10790
  54.95300	   3.06334	  -0.11657
  54.93600	   3.06573	  -0.12055
  54.90400	   3.06260	  -0.12215
  54.87200	   3.06841	  -0.12065
  54.84200	   3.06688	  -0.12100
  54.81200	   3.06054	  -0.11780
  54.78300	   3.07028	  -0.11128
  54.75500	   3.06322	  -0.11370
  54.72700	   3.07362	  -0.11524
  54.70100	   3.06767	  -0.12382
  54.67600	   3.06953	  -0.11467
  54.65100	   3.06193	  -0.11716
  54.62800	   3.05303	  -0.11543
  54.60500	   3.07256	  -0.11797
  54.58200	   3.06401	  -0.12088
  54.56000	   3.06802	  -0.11688
  54.53800	   3.06593	  -0.11537
  54.51400	   3.07145	  -0.10583
  54.49200	   3.07795	  -0.10929
  54.46900	   3.06041	  -0.11229
  54.44500	   3.06322	  -0.11480
  54.42100	   3.06761	  -0.11183
  54.39300	   3.06859	  -0.11539
  54.36600	   3.06665	  -0.11396
  54.33800	   3.06635	  -0.11669
  54.30600	   3.06384	  -0.10876
  54.26900	   3.06097	  -0.11321
  54.22700	   3.06034	  -0.10782
  54.18400	   3.06191	  -0.11901
  54.13900	   3.06006	  -0.12367
  54.09300	   3.07393	  -0.12296
  54.04800	   3.06585	  -0.12181
  54.00000	   3.06251	  -0.11684
  53.95000	   3.07195	  -0.12233
  53.90000	   3.06699	  -0.12042
  53.84200	   3.07061	  -0.11409
  53.79100	   3.07159	  -0.11301
  53.74000	   3.06772	  -0.11130
  53.68900	   3.07088	  -0.10739
  53.63800	   3.06485	  -0.12238
  53.58900	   3.07119	  -0.11280
  53.54100	   3.06581	  -0.11798
  53.49500	   3.06839	  -0.12284
  53.45000	   3.06984	  -0.12172
  53.40500	   3.06974	  -0.11140
  53.36100	   3.06373	  -0.11802
  53.31700	   3.06168	  -0.11385
  53.27500	   3.06557	  -0.11257
  53.23300	   3.06221	  -0.12296
  53.19100	   3.07419	  -0.12971
  53.15100	   3.07016	  -0.11995
  53.11000	   3.06569	  -0.11733
  53.06900	   3.07143	  -0.11799
  53.02700	   3.06329	  -0.12220
  52.98600	   3.06191	  -0.11781
  52.94700	   3.06272	  -0.10874
  52.91000	   3.06843	  -0.12649
  52.87100	   3.06519	  -0.13089
  52.83400	   3.06081	  -0.12234
  52.79800	   3.06558	  -0.11533
  52.76300	   3.05332	  -0.11820
  52.72900	   3.06137	  -0.11289
  52.69600	   3.06245	  -0.10122
  52.66300	   3.05547	  -0.10930
  52.63200	   3.06244	  -0.11237
  52.60300	   3.06078	  -0.11493
  52.57500	   3.05735	  -0.12286
  52.54400	   3.05632	  -0.11784
  52.52000	   3.05911	  -0.11703
  52.49600	   3.06637	  -0.10663
  52.47500	   3.06577	  -0.11191
  52.45500	   3.07024	  -0.11830
  52.43700	   3.06713	  -0.12226
  52.42100	   3.06406	  -0.12221
  52.40600	   3.06729	  -0.12117
  52.39300	   3.06882	  -0.12462
  52.38300	   3.06857	  -0.11214
  52.37400	   3.05994	  -0.11682
  52.36800	   3.05898	  -0.12684
  52.36400	   3.06340	  -0.12054
  52.36100	   3.06336	  -0.12341
  52.36100	   3.06563	  -0.12207
  52.36300	   3.05645	  -0.11933
  52.36600	   3.06094	  -0.11358
  52.37000	   3.06374	  -0.11780
  52.37700	   3.05352	  -0.11945
  52.38600	   3.06384	  -0.11363
  52.39400	   3.05181	  -0.11893
  52.40700	   3.06031	  -0.12293
  52.41900	   3.05639	  -0.12509
  52.43200	   3.06478	  -0.11301
  52.44700	   3.06943	  -0.12022
  52.46300	   3.06878	  -0.11147
  52.48000	   3.06442	  -0.11217
  52.49800	   3.05648	  -0.11500
  52.51800	   3.05759	  -0.11653
  52.53900	   3.06208	  -0.11813
  52.56100	   3.06428	  -0.11288
  52.58400	   3.06119	  -0.11848
  52.60900	   3.05967	  -0.11813
  52.63300	   3.06277	  -0.12304
  52.66000	   3.06019	  -0.11200
  52.68700	   3.06101	  -0.10890
  52.71500	   3.05172	  -0.11031
  52.74200	   3.06812	  -0.12081
  52.77200	   3.06469	  -0.11650
  52.80500	   3.05580	  -0.12033
  52.83600	   3.06341	  -0.11010
  52.86700	   3.05794	  -0.11079
  52.90100	   3.05866	  -0.11631
  52.93500	   3.06499	  -0.11300
  52.96900	   3.06447	  -0.11586
  53.00500	   3.06613	  -0.11509
  53.04200	   3.06258	  -0.11801
  53.08000	   3.06498	  -0.12273
  53.11800	   3.05112	  -0.12016
  53.15900	   3.05559	  -0.10578
  53.20000	   3.05756	  -0.12217
  53.24100	   3.07099	  -0.11942
  53.28100	   3.06912	  -0.12310
  53.32300	   3.07153	  -0.11332
  53.36900	   3.06587	  -0.11009
  53.41500	   3.06250	  -0.12298
  53.46100	   3.04896	  -0.11915
  53.50700	   3.05988	  -0.12249
  53.55400	   3.07281	  -0.12139
  53.60300	   3.05807	  -0.12068
  53.65100	   3.06532	  -0.10898
  53.70100	   3.06912	  -0.12224
  53.75100	   3.05539	  -0.11420
  53.80200	   3.05611	  -0.11312
  53.85400	   3.06458	  -0.11523
  53.90700	   3.07023	  -0.10429
  53.96100	   3.05562	  -0.11140
  54.01400	   3.06534	  -0.11650
  54.06900	   3.05519	  -0.11018
  54.12500	   3.05149	  -0.11265
  54.18000	   3.06471	  -0.11504
  54.23700	   3.06987	  -0.11563
  54.29300	   3.05966	  -0.11074
  54.35200	   3.06199	  -0.11116
  54.41100	   3.06425	  -0.11131
  54.47000	   3.06282	  -0.10441
  54.53000	   3.06677	  -0.11098
  54.59100	   3.07224	  -0.11939
  54.65300	   3.07532	  -0.11388
  54.71500	   3.06598	  -0.11935
  54.77800	   3.06542	  -0.11208
  54.84200	   3.06163	  -0.11656
  54.90700	   3.06545	  -0.11901
  54.97200	   3.06631	  -0.12077
  55.03800	   3.05951	  -0.10257
  55.10400	   3.06509	  -0.11022
  55.16900	   3.07559	  -0.11516
  55.23700	   3.07140	  -0.12886
  55.30500	   3.07261	  -0.11490
  55.37400	   3.07604	  -0.12271
  55.44400	   3.06439	  -0.11692
  55.51400	   3.06322	  -0.11193
  55.58400	   3.06930	  -0.11572
  55.65400	   3.06925	  -0.11829
  55.72400	   3.06248	  -0.11070
  55.79600	   3.06509	  -0.11573
  55.86700	   3.07325	  -0.11791
  55.93900	   3.06726	  -0.11858
  56.01200	   3.06658	  -0.12102
  56.08600	   3.07075	  -0.11673
  56.15900	   3.06624	  -0.11933
  56.23100	   3.06383	  -0.10794
  56.30500	   3.07056	  -0.11568
  56.38000	   3.06547	  -0.11923
  56.45200	   3.06534	  -0.11358
  56.52600	   3.06580	  -0.11279
  56.60100	   3.06579	  -0.11226
  56.67500	   3.06941	  -0.11184
  56.75200	   3.06203	  -0.11831
  56.82600	   3.06817	  -0.11763
  56.90100	   3.06685	  -0.11856
  56.97600	   3.07627	  -0.11299
  57.05300	   3.06909	  -0.12448
  57.12900	   3.07792	  -0.11851
  57.20600	   3.07696	  -0.12472
  57.28300	   3.07448	  -0.11500
  57.36100	   3.07084	  -0.11361
  57.43900	   3.07208	  -0.11256
  57.51700	   3.06161	  -0.11158
  57.59600	   3.06877	  -0.11786
  57.67400	   3.06970	  -0.12710
  57.75300	   3.07169	  -0.12023
  57.83100	   3.07446	  -0.11457
  57.91100	   3.08021	  -0.11339
  57.99300	   3.08150	  -0.12068
  58.07400	   3.07372	  -0.12071
  58.15400	   3.07655	  -0.11150
  58.23600	   3.08031	  -0.11077
  58.31900	   3.07953	  -0.11793
  58.40200	   3.07807	  -0.11237
  58.48300	   3.07685	  -0.11422
  58.56500	   3.07328	  -0.12049
  58.64600	   3.07924	  -0.12213
  58.72800	   3.07906	  -0.11734
  58.81000	   3.08246	  -0.11340
  58.89100	   3.08249	  -0.11194
  58.97200	   3.07739	  -0.11642
  59.05300	   3.08441	  -0.11473
  59.13600	   3.08339	  -0.11333
  59.21900	   3.07010	  -0.12164
  59.30200	   3.07217	  -0.11843
  59.38500	   3.08592	  -0.11608
  59.46800	   3.07574	  -0.10426
  59.55200	   3.07591	  -0.11542
  59.63700	   3.07509	  -0.11091
  59.72200	   3.07745	  -0.11156
  59.80600	   3.07866	  -0.11842
  59.89100	   3.07770	  -0.12375
  59.97800	   3.07510	  -0.10958
  60.06200	   3.08669	  -0.11104
  60.14800	   3.07944	  -0.11043
  60.23500	   3.08000	  -0.11144
  60.32200	   3.08365	  -0.11174
  60.41000	   3.07704	  -0.11896
  60.49700	   3.08810	  -0.12136
  60.58400	   3.08266	  -0.10849
  60.67100	   3.08164	  -0.11423
  60.76100	   3.08750	  -0.10638
  60.84900	   3.07609	  -0.11469
  60.93700	   3.07615	  -0.10903
  61.02600	   3.07891	  -0.11985
  61.11400	   3.08199	  -0.11509
  61.20300	   3.07833	  -0.11518
  61.29200	   3.08326	  -0.11444
  61.38100	   3.08518	  -0.11160
  61.46900	   3.09011	  -0.10411
  61.55800	   3.08966	  -0.12035
  61.64600	   3.08444	  -0.11648
  61.73300	   3.08725	  -0.10914
  61.82300	   3.07852	  -0.11183
  61.91400	   3.07498	  -0.11449
  62.00600	   3.08275	  -0.11481
  62.09500	   3.07576	  -0.11005
  62.18500	   3.07978	  -0.10374
  62.27700	   3.07783	  -0.10093
  62.36700	   3.08857	  -0.11328
  62.45800	   3.08916	  -0.11167
  62.54800	   3.08819	  -0.10751
  62.63800	   3.08740	  -0.11899
  62.72800	   3.08983	  -0.10941
  62.81700	   3.08774	  -0.11057
  62.90700	   3.08624	  -0.11091
  62.99700	   3.09233	  -0.10793
  63.08600	   3.07924	  -0.10625
  63.17600	   3.07992	  -0.12207
  63.26500	   3.08222	  -0.11111
  63.35500	   3.07825	  -0.11010
  63.44500	   3.08392	  -0.11813
  63.53600	   3.08773	  -0.12465
  63.62500	   3.08396	  -0.11326
  63.71600	   3.08350	  -0.11654
  63.80700	   3.08391	  -0.12480
  63.89700	   3.08343	  -0.10318
  63.98700	   3.09058	  -0.10885
  64.07700	   3.08870	  -0.10884
  64.16800	   3.08694	  -0.11243
  64.25800	   3.08352	  -0.11518
  64.34900	   3.09126	  -0.11442
  64.43900	   3.08532	  -0.11411
  64.53000	   3.10096	  -0.11121
  64.62100	   3.09754	  -0.11510
  64.71200	   3.09287	  -0.10130
  64.80700	   3.09100	  -0.11758
  64.89800	   3.10056	  -0.11407
  64.98900	   3.10394	  -0.11074
  65.08100	   3.09532	  -0.10959
  65.17200	   3.09279	  -0.11107
  65.26300	   3.09863	  -0.11424
  65.35400	   3.10365	  -0.11476
  65.44600	   3.09206	  -0.10417
  65.53800	   3.09255	  -0.11472
  65.63000	   3.08612	  -0.11084
  65.72100	   3.10396	  -0.10772
  65.81400	   3.10585	  -0.10698
  65.90600	   3.10124	  -0.11346
  65.99900	   3.09594	  -0.11530
  66.09100	   3.09900	  -0.10491
  66.18400	   3.09925	  -0.11794
  66.27700	   3.10044	  -0.11406
  66.37000	   3.09969	  -0.11917
  66.46400	   3.09230	  -0.11917
  66.56300	   3.09377	  -0.10151
  66.65700	   3.10664	  -0.10605
  66.75100	   3.10122	  -0.10769
  66.84400	   3.09636	  -0.11123
  66.93700	   3.10109	  -0.12085
  67.03300	   3.10198	  -0.12320
  67.12800	   3.09925	  -0.11989
  67.22200	   3.09719	  -0.11605
  67.31800	   3.09907	  -0.10788
  67.41400	   3.11276	  -0.11389
  67.50800	   3.11684	  -0.10881
  67.60400	   3.10687	  -0.11732
  67.69900	   3.10445	  -0.11850
  67.79500	   3.11329	  -0.10650
  67.89200	   3.11034	  -0.10430
  67.98900	   3.09483	  -0.09580
  68.09600	   3.09985	  -0.11750
  68.19500	   3.10045	  -0.11806
  68.29800	   3.11612	  -0.10511
  68.39700	   3.11569	  -0.11731
  68.49500	   3.11306	  -0.11247
  68.59300	   3.10809	  -0.12327
  68.67400	   3.10748	  -0.11242
  68.78600	   3.09292	  -0.11668
  68.87200	   3.08943	  -0.11725
  68.98500	   3.09979	  -0.11617
  69.07000	   3.10661	  -0.11548
  69.18400	   3.11012	  -0.11614
  69.26800	   3.10803	  -0.11527
  69.36400	   3.10852	  -0.11833
  69.46300	   3.10805	  -0.11389
  69.56300	   3.10148	  -0.10890
  69.66200	   3.10117	  -0.11381
  69.76100	   3.10274	  -0.10420
  69.86100	   3.10153	  -0.10525
  69.96000	   3.09811	  -0.11069
  70.06100	   3.10135	  -0.10421
  70.16100	   3.10396	  -0.11235
  70.26100	   3.10598	  -0.11977
  70.36200	   3.11059	  -0.11509
  70.46200	   3.11233	  -0.11173
  70.56300	   3.10982	  -0.10122
  70.66300	   3.10687	  -0.09924
  70.76900	   3.10016	  -0.10343
  70.87000	   3.10518	  -0.10948
  70.97100	   3.11374	  -0.10696
  71.07100	   3.10690	  -0.11294
  71.17100	   3.11403	  -0.10693
  71.27100	   3.11583	  -0.09820
  71.37200	   3.11409	  -0.11168
  71.47200	   3.11711	  -0.10495
  71.57300	   3.11646	  -0.11582
  71.67400	   3.10869	  -0.11017
  71.77400	   3.12536	  -0.10711
  71.87500	   3.10894	  -0.10415
  71.97400	   3.11550	  -0.10749
  72.07500	   3.12292	  -0.10980
  72.17500	   3.13074	  -0.11329
  72.27500	   3.13588	  -0.10957
  72.37500	   3.12997	  -0.10875
  72.47400	   3.12892	  -0.10706
  72.57500	   3.13110	  -0.10335
  72.67400	   3.12671	  -0.10041
  72.77300	   3.12130	  -0.10824
  72.87300	   3.12514	  -0.12482
  72.97800	   3.12127	  -0.10903
  73.07600	   3.12396	  -0.11261
  73.17500	   3.13014	  -0.11917
  73.27400	   3.13165	  -0.11284
  73.37300	   3.14101	  -0.10820
  73.47200	   3.13655	  -0.11187
  73.57100	   3.13600	  -0.11252
  73.66900	   3.13351	  -0.10669
  73.76600	   3.13360	  -0.10793
  73.86500	   3.13447	  -0.11003
  73.96300	   3.13291	  -0.11453
  74.06100	   3.13869	  -0.12473
  74.15800	   3.14482	  -0.11154
  74.25500	   3.14932	  -0.10791
  74.35300	   3.14599	  -0.11036
  74.45000	   3.14655	  -0.10754
  74.54700	   3.13889	  -0.11080
  74.64300	   3.14414	  -0.11149
  74.74000	   3.13495	  -0.11149
  74.83700	   3.14117	  -0.11165
  74.93200	   3.14720	  -0.10988
  75.02900	   3.15655	  -0.10949
  75.12500	   3.15682	  -0.10972
  75.21900	   3.15618	  -0.11249
  75.31100	   3.15091	  -0.11805
  75.40400	   3.16318	  -0.10818
  75.49700	   3.16306	  -0.10602
  75.58900	   3.16490	  -0.11012
  75.68200	   3.15817	  -0.10727
  75.77500	   3.14871	  -0.10871
  75.86900	   3.16125	  -0.11672
  75.97800	   3.15812	  -0.12153
  76.05500	   3.16709	  -0.11832
  76.16300	   3.16369	  -0.11749
  76.23900	   3.16684	  -0.11293
  76.34600	   3.16952	  -0.11326
  76.44000	   3.16729	  -0.11293
  76.53100	   3.17064	  -0.11791
  76.62200	   3.16738	  -0.11545
  76.71200	   3.17431	  -0.10472
  76.80200	   3.17903	  -0.10353
  76.89200	   3.18461	  -0.10218
  76.98200	   3.18385	  -0.10316
  77.07700	   3.17881	  -0.11198
  77.16500	   3.18428	  -0.11556
  77.25600	   3.19356	  -0.11579
  77.34500	   3.20073	  -0.11544
  77.43400	   3.18780	  -0.10495
  77.52300	   3.20025	  -0.11826
  77.61200	   3.19429	  -0.11599
  77.70200	   3.20168	  -0.11165
  77.79000	   3.20813	  -0.11705
  77.87700	   3.20796	  -0.11284
  77.96600	   3.21326	  -0.11171
  78.05600	   3.21414	  -0.10938
  78.14500	   3.21661	  -0.12380
  78.23700	   3.21309	  -0.11520
  78.32500	   3.21346	  -0.11034
  78.41300	   3.21024	  -0.11024
  78.50100	   3.23025	  -0.11688
  78.58900	   3.23574	  -0.10934
  78.67700	   3.22839	  -0.10580
  78.76500	   3.23022	  -0.11273
  78.85300	   3.22759	  -0.11326
  78.94000	   3.23476	  -0.11447
  79.02800	   3.22506	  -0.11681
  79.11600	   3.24076	  -0.12124
  79.20200	   3.24583	  -0.10749
  79.29100	   3.24096	  -0.11178
  79.37700	   3.25600	  -0.10727
  79.46500	   3.25808	  -0.12139
  79.55300	   3.25248	  -0.11285
  79.64000	   3.26362	  -0.10769
  79.72800	   3.27176	  -0.10330
  79.81500	   3.26582	  -0.10194
  79.90700	   3.26064	  -0.11340
  79.99500	   3.28021	  -0.11442
  80.08200	   3.28332	  -0.11732
  80.17500	   3.28554	  -0.10954
  80.26200	   3.28707	  -0.11654
  80.35000	   3.29540	  -0.12177
  80.43700	   3.30306	  -0.11942
  80.52400	   3.31773	  -0.11029
  80.61300	   3.31345	  -0.12032
  80.70100	   3.31275	  -0.11879
  80.78900	   3.31640	  -0.11709
  80.87600	   3.31688	  -0.11386
  80.96500	   3.32323	  -0.12063
  81.05200	   3.33330	  -0.11073
  81.13800	   3.35265	  -0.10821
  81.22500	   3.35297	  -0.11732
  81.31100	   3.35576	  -0.11535
  81.39800	   3.35857	  -0.11626
  81.48400	   3.36882	  -0.10779
  81.57100	   3.37911	  -0.10959
  81.65800	   3.38369	  -0.12136
  81.74500	   3.40266	  -0.11986
  81.83200	   3.41341	  -0.11713
  81.91900	   3.43041	  -0.10297
  82.00600	   3.43196	  -0.10862
  82.09300	   3.44004	  -0.11709
  82.18200	   3.44767	  -0.10672
  82.26800	   3.47185	  -0.10214
  82.35700	   3.48378	  -0.09925
  82.44900	   3.50361	  -0.09485
  82.53700	   3.52676	  -0.10023
  82.62600	   3.54826	  -0.09994
  82.71500	   3.56653	  -0.09311
  82.80300	   3.58810	  -0.09612
  82.89100	   3.61171	  -0.10332
  82.98000	   3.62433	  -0.09957
  83.06900	   3.65472	  -0.10795
  83.15800	   3.68847	  -0.11807
  83.25700	   3.71526	  -0.10696
  83.34600	   3.73468	  -0.11122
  83.43600	   3.76015	  -0.08880
  83.53000	   3.78575	  -0.10572
  83.62000	   3.81347	  -0.10532
  83.71000	   3.84949	  -0.10199
  83.79900	   3.88500	  -0.10284
  83.89000	   3.92015	  -0.10385
  83.98000	   3.95612	  -0.10453
  84.07000	   4.00224	  -0.10459
  84.16100	   4.06134	  -0.09103
  84.25200	   4.12599	  -0.06749
  84.34300	   4.23884	  -0.01633
  84.43400	   4.38471	   0.02421
  84.52600	   4.57652	   0.09516
  84.61700	   4.89743	   0.24603
  84.71300	   5.46902	   0.53723
  84.80500	   6.32798	   0.81308
  84.89700	   7.33298	   0.95811
  84.98900	   8.40498	   1.00608
  85.08200	   9.48422	   0.99799
  85.17400	  10.61403	   0.93351
  85.26700	  11.58516	   0.69451
  85.35900	  12.26804	   0.30325
  85.45700	  12.56660	  -0.09021
  85.55500	  12.65561	  -0.31947
  85.65300	  12.70558	  -0.40827
  85.74800	  12.71713	  -0.44687
  85.84100	  12.71631	  -0.45327
  85.93500	  12.73304	  -0.46602
  86.02900	  12.72835	  -0.45974
  86.12500	  12.72958	  -0.46681
  86.21900	  12.73112	  -0.47868
  86.31400	  12.72364	  -0.46941
  86.40900	  12.72158	  -0.46658
  86.50400	  12.72669	  -0.47607
  86.59900	  12.72263	  -0.46213
  86.69500	  12.72119	  -0.47164
  86.79100	  12.71481	  -0.46507
  86.88600	  12.73315	  -0.46076
  86.98300	  12.72865	  -0.45892
  87.07800	  12.72336	  -0.47216
  87.17200	  12.73467	  -0.48581
  87.26800	  12.73459	  -0.47303
  87.36300	  12.72825	  -0.46768
  87.45800	  12.72594	  -0.46958
  87.55300	  12.72407	  -0.46944
  87.64900	  12.73765	  -0.48178
  87.74500	  12.71782	  -0.46495
  87.84100	  12.72895	  -0.45811
  87.93700	  12.73511	  -0.46158
  88.03300	  12.71953	  -0.46377
  88.13000	  12.72957	  -0.46844
  88.22800	  12.73013	  -0.46769
  88.32600	  12.72963	  -0.47151
  88.42200	  12.72747	  -0.46515
  88.51900	  12.72761	  -0.45842
  88.61700	  12.72946	  -0.47305
  88.71500	  12.72032	  -0.46729
  88.81300	  12.72960	  -0.47717
  88.91200	  12.72338	  -0.46757
  88.99300	  12.72550	  -0.47056
  89.10500	  12.71650	  -0.47459
  89.19100	  12.72392	  -0.46766
  89.30400	  12.73024	  -0.46867
  89.38900	  12.72913	  -0.46517
  89.48600	  12.73378	  -0.46771
  89.58500	  12.72779	  -0.46602
  89.68500	  12.70890	  -0.47091
  89.78500	  12.72513	  -0.46750
  89.88400	  12.72444	  -0.47840
  89.98300	  12.72642	  -0.47983
  90.08300	  12.71959	  -0.46743
  90.18300	  12.72204	  -0.46786
  90.28500	  12.72606	  -0.46712
  90.38600	  12.71934	  -0.45804
  90.48700	  12.72626	  -0.47921
  90.58900	  12.71823	  -0.46633
  90.69000	  12.71575	  -0.46300
  90.79200	  12.71143	  -0.46962
  90.89300	  12.71909	  -0.46198
  90.99500	  12.71889	  -0.47282
  91.09800	  12.71775	  -0.46664
  91.20000	  12.72095	  -0.46227
  91.30300	  12.72913	  -0.46374
  91.40500	  12.71949	  -0.46261
  91.50800	  12.72729	  -0.47609
  91.61000	  12.72201	  -0.47558
  91.71400	  12.71642	  -0.46891
  91.81700	  12.72003	  -0.46699
  91.92000	  12.72396	  -0.46659
  92.02300	  12.72583	  -0.47244
  92.12600	  12.71973	  -0.47658
  92.23000	  12.71964	  -0.47213
  92.33400	  12.72924	  -0.47511
  92.43700	  12.73347	  -0.46349
  92.54100	  12.71634	  -0.46471
  92.64500	  12.73898	  -0.46757
  92.74900	  12.73158	  -0.46138
  92.85300	  12.72376	  -0.46288
  92.95700	  12.73177	  -0.46217
  93.06100	  12.73777	  -0.45206
  93.16600	  12.73293	  -0.45763
  93.27000	  12.72057	  -0.46263
  93.37400	  12.73118	  -0.46257
  93.47900	  12.72678	  -0.45955
  93.58200	  12.73028	  -0.46638
  93.68500	  12.72594	  -0.45113
  93.78700	  12.73202	  -0.46607
  93.89000	  12.72902	  -0.46586
  93.99400	  12.73573	  -0.46506
  94.09600	  12.72494	  -0.46508
  94.19900	  12.72993	  -0.46731
  94.30200	  12.73503	  -0.46422
  94.40400	  12.72203	  -0.46530
  94.50800	  12.71893	  -0.46260
  94.61000	  12.72296	  -0.47120
  94.71300	  12.73206	  -0.46326
  94.81600	  12.72698	  -0.46566
  94.91900	  12.73620	  -0.46842
  95.02200	  12.72689	  -0.46669
  95.12500	  12.73127	  -0.46190
  95.22700	  12.73151	  -0.45932
  95.33000	  12.73525	  -0.45769
  95.43300	  12.72762	  -0.46754
  95.53500	  12.73009	  -0.46443
  95.63800	  12.73109	  -0.46079
  95.74000	  12.72705	  -0.45805
  95.84300	  12.71671	  -0.45176
  95.94500	  12.73139	  -0.46310
  96.04700	  12.73170	  -0.47155
  96.15000	  12.72340	  -0.46595
  96.25200	  12.73053	  -0.45579
  96.35400	  12.72574	  -0.45800
  96.45600	  12.72202	  -0.46078
  96.55800	  12.71505	  -0.46695
  96.66000	  12.72815	  -0.46194
  96.76100	  12.73413	  -0.47057
  96.86200	  12.72158	  -0.45726
  96.96300	  12.73009	  -0.45628
  97.06500	  12.72753	  -0.46604
  97.16700	  12.72846	  -0.45921
  97.26600	  12.72624	  -0.46339
  97.36800	  12.71651	  -0.45305
  97.46800	  12.72562	  -0.45270
  97.56900	  12.72591	  -0.46341
  97.66800	  12.72948	  -0.45805
  97.76800	  12.73481	  -0.45418
  97.86600	  12.71872	  -0.45882
  97.96600	  12.71909	  -0.45935
  98.06600	  12.72972	  -0.46512
  98.16500	  12.71975	  -0.46084
  98.26400	  12.72556	  -0.46395
  98.36300	  12.73932	  -0.46254
  98.46100	  12.72655	  -0.46660
  98.55900	  12.72473	  -0.46044
  98.65700	  12.73296	  -0.45967
  98.75400	  12.72332	  -0.45395
  98.85000	  12.71875	  -0.44907
  98.94800	  12.71509	  -0.45434
  99.04300	  12.72050	  -0.46629
  99.14100	  12.71870	  -0.45288
  99.23700	  12.72247	  -0.45716
  99.33300	  12.72276	  -0.46537
  99.42800	  12.72392	  -0.45543
  99.52400	  12.72719	  -0.45554
  99.62100	  12.72753	  -0.46638
  99.71500	  12.73066	  -0.45459
  99.80800	  12.73049	  -0.45646
  99.90100	  12.72783	  -0.45174
  99.99500	  12.72036	  -0.45293
 100.08800	  12.72420	  -0.45405
 100.18200	  12.72726	  -0.46152
 100.27400	  12.73145	  -0.45463
 100.36600	  12.73500	  -0.45905
 100.47200	  12.72924	  -0.45622
 100.56700	  12.72786	  -0.46380
 100.65600	  12.73164	  -0.45986
 100.74500	  12.71725	  -0.47245
 100.83300	  12.72074	  -0.46404
 100.92300	  12.70951	  -0.45913
 101.01100	  12.71846	  -0.46971
 101.09900	  12.72199	  -0.46088
 101.18700	  12.73313	  -0.45977
 101.27400	  12.73523	  -0.46087
 101.36100	  12.73934	  -0.45224
 101.44800	  12.72375	  -0.45820
 101.53500	  12.72110	  -0.45670
 101.62300	  12.72651	  -0.45377
 101.70900	  12.73038	  -0.46642
 101.79500	  12.73336	  -0.46467
 101.88100	  12.72745	  -0.45383
 101.96800	  12.71559	  -0.45682
 102.05400	  12.72313	  -0.44884
 102.14100	  12.72442	  -0.45596
 102.22600	  12.73081	  -0.46114
 102.31200	  12.72998	  -0.46169
 102.39800	  12.72208	  -0.46342
 102.48500	  12.72735	  -0.44890
 102.57300	  12.73130	  -0.45654
 102.66100	  12.73279	  -0.46173
 102.74900	  12.72676	  -0.45440
 102.83600	  12.73374	  -0.45144
 102.92400	  12.73494	  -0.45736
 103.01200	  12.73152	  -0.44788
 103.10000	  12.73013	  -0.44356
 103.18700	  12.72834	  -0.46376
 103.27600	  12.73295	  -0.46596
 103.36400	  12.72402	  -0.47429
 103.45400	  12.73573	  -0.46306
 103.54300	  12.73664	  -0.45069
 103.63200	  12.74108	  -0.46365
 103.72200	  12.73850	  -0.45880
 103.81200	  12.73513	  -0.45280
 103.90500	  12.73569	  -0.46308
 103.99700	  12.73601	  -0.46793
 104.09000	  12.71587	  -0.46275
 104.18300	  12.72322	  -0.44713
 104.27600	  12.72108	  -0.45636
 104.37100	  12.71612	  -0.45374
 104.46600	  12.72667	  -0.45597
 104.56200	  12.73640	  -0.45939
 104.65900	  12.73106	  -0.45311
 104.75600	  12.72865	  -0.46572
 104.85500	  12.72083	  -0.45107
 104.95500	  12.73661	  -0.45251
 105.05600	  12.72947	  -0.45315
 105.15700	  12.72644	  -0.46614
 105.25900	  12.72735	  -0.45389
 105.36300	  12.73170	  -0.45674
 105.46700	  12.72914	  -0.45643
 105.57200	  12.72833	  -0.45577
 105.67900	  12.73257	  -0.45415
 105.78700	  12.72216	  -0.45433
 105.89500	  12.73305	  -0.45856
 106.00600	  12.72776	  -0.45729
 106.11700	  12.73245	  -0.45121
 106.23000	  12.72704	  -0.44423
 106.34300	  12.73985	  -0.46024
 106.45700	  12.73887	  -0.45565
 106.57300	  12.74071	  -0.45122
 106.69100	  12.73048	  -0.45925
 106.81000	  12.72512	  -0.46070
 106.93000	  12.73348	  -0.46059
 107.05200	  12.73513	  -0.45510
 107.17600	  12.73042	  -0.45494
 107.30100	  12.73409	  -0.46020
 107.42800	  12.74085	  -0.45270
 107.55600	  12.73313	  -0.45830
 107.68600	  12.72035	  -0.45130
 107.81700	  12.72243	  -0.45438
 107.94900	  12.72865	  -0.44478
 108.08300	  12.73650	  -0.45066
 108.21900	  12.73519	  -0.45245
 108.35600	  12.73067	  -0.45814
 108.49600	  12.72909	  -0.45202
 108.63600	  12.72888	  -0.46029
 108.77800	  12.72334	  -0.46058
 108.92300	  12.71875	  -0.45009
 109.06700	  12.72729	  -0.44973
 109.21200	  12.72240	  -0.44973
 109.35800	  12.72993	  -0.45461
 109.50600	  12.72854	  -0.45287
 109.65600	  12.72885	  -0.45274
 109.80800	  12.73278	  -0.45317
 109.96000	  12.74028	  -0.45547
 110.11500	  12.72687	  -0.45385
 110.27100	  12.72027	  -0.44738
 110.43000	  12.73198	  -0.44816
 110.59100	  12.73093	  -0.43633
 110.75300	  12.72919	  -0.44321
 110.91600	  12.71916	  -0.45027
 111.08400	  12.72274	  -0.44444
 111.25200	  12.73826	  -0.45020
 111.42100	  12.73515	  -0.44665
 111.59300	  12.72758	  -0.44748
 111.76700	  12.72844	  -0.46261
 111.94200	  12.72532	  -0.45906
 112.12000	  12.73212	  -0.45157
 112.29900	  12.73261	  -0.45633
 112.48000	  12.73247	  -0.44371
 112.66400	  12.73161	  -0.45345
 112.84900	  12.72988	  -0.45351
 113.03600	  12.72068	  -0.45429
 113.22400	  12.73188	  -0.44643
 113.41500	  12.72776	  -0.45028
 113.60800	  12.73682	  -0.45402
 113.80200	  12.72910	  -0.45284
 113.99800	  12.72954	  -0.45292
 114.19700	  12.73591	  -0.44308
 114.39700	  12.72908	  -0.45031
 114.59900	  12.72637	  -0.45240
 114.80300	  12.73573	  -0.43996
 115.00900	  12.73345	  -0.44302
 115.21800	  12.72415	  -0.45727
 115.42800	  12.72306	  -0.45668
 115.64000	  12.73608	  -0.45788
 115.85600	  12.73154	  -0.45196
 116.05900	  12.72890	  -0.46073
 116.27700	  12.73183	  -0.45016
 116.49700	  12.73060	  -0.44937
 116.71900	  12.73309	  -0.44368
 116.94300	  12.72960	  -0.45157
 117.17000	  12.74068	  -0.45053
 117.39800	  12.73817	  -0.45695
 117.62700	  12.73725	  -0.44911
 117.85900	  12.73725	  -0.43840
 118.09000	  12.73400	  -0.45181
 118.32100	  12.73144	  -0.46047
 118.55400	  12.74129	  -0.44309
 118.78700	  12.72850	  -0.44427
 119.02300	  12.72421	  -0.45145
 119.26100	  12.73022	  -0.44263
 119.50000	  12.73619	  -0.44698
 119.74100	  12.73448	  -0.44889
 119.98300	  12.73363	  -0.45341
 120.22600	  12.72284	  -0.44983
 120.47200	  12.72679	  -0.45507
 120.71900	  12.72686	  -0.44619
 120.96600	  12.72765	  -0.44746
 121.21600	  12.73705	  -0.44897
 121.46700	  12.73035	  -0.44619
 121.71800	  12.72791	  -0.44382
 121.97200	  12.73342	  -0.44307
 122.22700	  12.73023	  -0.43654
 122.48200	  12.73083	  -0.44659
 122.73900	  12.71942	  -0.44184
 122.99600	  12.73040	  -0.44279
 123.25600	  12.73801	  -0.43688
 123.51600	  12.73592	  -0.43718
 123.77700	  12.73968	  -0.44804
 124.04000	  12.72381	  -0.44519
 124.30300	  12.73396	  -0.44496
 124.56700	  12.73313	  -0.42796
 124.83100	  12.74212	  -0.43634
 125.09700	  12.72742	  -0.44458
 125.36400	  12.73109	  -0.43879
 125.63100	  12.72189	  -0.45131
 125.89900	  12.71861	  -0.44098
 126.16800	  12.72731	  -0.43709
 126.43700	  12.72984	  -0.43605
 126.70800	  12.73117	  -0.43728
 126.97900	  12.73635	  -0.43649
 127.25000	  12.72889	  -0.44117
 127.52200	  12.71474	  -0.43961
 127.79000	  12.72921	  -0.43079
 128.05900	  12.72773	  -0.43631
 128.32800	  12.72792	  -0.44707
 128.59700	  12.73148	  -0.43892
 128.86700	  12.72963	  -0.43001
 129.13800	  12.72773	  -0.43233
 129.40900	  12.72721	  -0.44157
 129.68000	  12.73119	  -0.43739
 129.95100	  12.72391	  -0.45229
 130.22300	  12.71689	  -0.44052
 130.49600	  12.72961	  -0.43898
 130.76900	  12.73166	  -0.43661
 131.04200	  12.72278	  -0.44773
 131.31500	  12.72777	  -0.43203
 131.58800	  12.73954	  -0.43822
 131.86200	  12.73348	  -0.43927
 132.13600	  12.73240	  -0.44189
 132.41100	  12.73051	  -0.44037
 132.68500	  12.73431	  -0.44262
 132.96000	  12.73177	  -0.43528
 133.23500	  12.72355	  -0.44433
 133.50900	  12.72445	  -0.43498
 133.78400	  12.73189	  -0.43179
 134.05900	  12.72147	  -0.43167
 134.33500	  12.72723	  -0.43991
 134.61100	  12.72970	  -0.43980
 134.88600	  12.72709	  -0.43934
 135.16200	  12.73138	  -0.43791
 135.43800	  12.73007	  -0.44625
 135.71400	  12.73171	  -0.43686
 135.99000	  12.72827	  -0.43962
 136.26600	  12.73400	  -0.45000
 136.54100	  12.73563	  -0.43749
 136.81700	  12.73272	  -0.42914
 137.09300	  12.73402	  -0.43904
 137.36900	  12.74212	  -0.43063
 137.64200	  12.73140	  -0.43672
 137.91400	  12.73397	  -0.43825
 138.18400	  12.72445	  -0.44469
 138.45600	  12.72630	  -0.44887
 138.72700	  12.72100	  -0.44208
 138.99800	  12.72904	  -0.43911
 139.26900	  12.74567	  -0.43770
 139.54000	  12.72612	  -0.43547
 139.81000	  12.72969	  -0.43899
 140.08100	  12.72954	  -0.42938
 140.35200	  12.71844	  -0.43692
 140.62200	  12.73183	  -0.44387
 140.89300	  12.73099	  -0.44070
 141.16300	  12.73891	  -0.42941
 141.43300	  12.71973	  -0.43588
 141.70200	  12.71890	  -0.44139
 141.97200	  12.73042	  -0.43240
 142.24200	  12.72238	  -0.43625
 142.51100	  12.72885	  -0.43438
 142.78000	  12.73047	  -0.43482
 143.04900	  12.73572	  -0.42946
 143.31800	  12.72979	  -0.42726
 143.58700	  12.72878	  -0.42766
 143.85500	  12.74079	  -0.43059
 144.12300	  12.73774	  -0.43778
 144.39100	  12.73233	  -0.43234
 144.65900	  12.72337	  -0.43690
 144.92600	  12.71591	  -0.43287
 145.19300	  12.72263	  -0.43947
 145.46000	  12.72751	  -0.43672
 145.72700	  12.72729	  -0.43224
 145.99300	  12.73357	  -0.43341
 146.25900	  12.74148	  -0.43407
 146.52500	  12.73958	  -0.43879
 146.79100	  12.73167	  -0.42737
 147.05600	  12.73259	  -0.43831
 147.32100	  12.72264	  -0.43935
 147.58600	  12.73323	  -0.43964
 147.85000	  12.73832	  -0.43139
 148.11100	  12.72983	  -0.42431
 148.37100	  12.72621	  -0.41756
 148.63100	  12.72715	  -0.42815
 148.89000	  12.73240	  -0.43338
 149.14800	  12.73791	  -0.42608
 149.40700	  12.74611	  -0.43209
 149.66500	  12.73605	  -0.43307
 149.92200	  12.73335	  -0.44609
 150.17900	  12.72003	  -0.44043
 150.43700	  12.72931	  -0.43214
 150.69300	  12.72653	  -0.43585
 150.95000	  12.72541	  -0.44720
 151.20600	  12.73118	  -0.43707
 151.46200	  12.73752	  -0.43209
 151.71700	  12.73589	  -0.43300
 151.97200	  12.73838	  -0.43216
 152.22700	  12.72754	  -0.43466
 152.48100	  12.73146	  -0.42169
 152.73600	  12.73518	  -0.43642
 152.98900	  12.72567	  -0.42326
 153.24300	  12.73445	  -0.43140
 153.49600	  12.73587	  -0.43180
 153.74900	  12.73471	  -0.44468
 154.00100	  12.73393	  -0.44082
 154.25300	  12.73173	  -0.43725
 154.50500	  12.73010	  -0.43514
 154.75600	  12.73635	  -0.43598
 155.00700	  12.73546	  -0.43023
 155.25800	  12.73548	  -0.42418
 155.50900	  12.73161	  -0.42905
 155.75800	  12.73182	  -0.42405
 156.00800	  12.73266	  -0.43772
 156.25700	  12.73526	  -0.43211
 156.50600	  12.74341	  -0.43111
 156.75400	  12.72865	  -0.44201
 157.00200	  12.73550	  -0.44584
 157.25000	  12.73192	  -0.43758
 157.49700	  12.73867	  -0.43504
 157.74400	  12.73776	  -0.42493
 157.99100	  12.73261	  -0.42875
 158.23700	  12.73208	  -0.42480
 158.48300	  12.73420	  -0.42317
 158.72800	  12.72888	  -0.42858
 158.97300	  12.72909	  -0.43762
 159.21800	  12.73608	  -0.43484
 159.46200	  12.73808	  -0.43117
 159.70300	  12.73199	  -0.43354
 159.94300	  12.72653	  -0.43685
 160.18300	  12.72686	  -0.42340
 160.42200	  12.74506	  -0.43323
 160.66100	  12.73774	  -0.42908
 160.89900	  12.72586	  -0.43408
 161.13700	  12.73098	  -0.43251
 161.37500	  12.73806	  -0.42805
 161.61200	  12.73244	  -0.42986
 161.85000	  12.74173	  -0.42799
 162.08600	  12.73491	  -0.42334
 162.32300	  12.73612	  -0.42357
 162.55700	  12.72180	  -0.42462
 162.79300	  12.72720	  -0.42493
 163.02800	  12.72170	  -0.42690
 163.26300	  12.73139	  -0.42812
 163.49700	  12.73209	  -0.42124
 163.73000	  12.72799	  -0.41847
 163.96400	  12.73301	  -0.43039
 164.19700	  12.72841	  -0.43372
 164.42900	  12.73490	  -0.43573
 164.66200	  12.72626	  -0.43355
 164.89300	  12.73407	  -0.42629
 165.12500	  12.73243	  -0.42855
 165.35500	  12.73901	  -0.42365
 165.58600	  12.73078	  -0.42390
 165.81600	  12.72964	  -0.43541
 166.04600	  12.73198	  -0.42990
 166.27500	  12.72963	  -0.41838
 166.50400	  12.73001	  -0.42396
 166.73300	  12.73250	  -0.43506
 166.96100	  12.73178	  -0.43333
 167.18900	  12.73517	  -0.43564
 167.41700	  12.73603	  -0.43339
 167.64400	  12.73531	  -0.42594
 167.87100	  12.72474	  -0.43634
 168.09700	  12.73373	  -0.43817
 168.32300	  12.73505	  -0.43440
 168.54800	  12.73222	  -0.43741
 168.77400	  12.73801	  -0.42484
 168.99800	  12.73531	  -0.43552
 169.22200	  12.73538	  -0.42787
 169.44600	  12.72096	  -0.42976
 169.67000	  12.72748	  -0.43067
 169.89300	  12.73835	  -0.43660
 170.11600	  12.73550	  -0.43008
 170.33800	  12.72798	  -0.42448
 170.56000	  12.73916	  -0.42858
 170.78300	  12.73026	  -0.43361
 171.00300	  12.72691	  -0.43195
 171.22400	  12.73432	  -0.42837
 171.44400	  12.73715	  -0.42930
 171.66100	  12.72671	  -0.43284
 171.87800	  12.73068	  -0.42652
 172.09500	  12.72964	  -0.42978
 172.31000	  12.73061	  -0.43675
 172.52600	  12.73372	  -0.43999
 172.74100	  12.72986	  -0.42475
 172.95500	  12.72706	  -0.43465
 173.17000	  12.72815	  -0.43489
 173.38400	  12.72923	  -0.42225
 173.59700	  12.73563	  -0.42813
 173.81000	  12.73700	  -0.43158
 174.02300	  12.72634	  -0.42441
 174.23500	  12.72955	  -0.41876
 174.44700	  12.73714	  -0.42265
 174.65900	  12.73269	  -0.42308
 174.87000	  12.73368	  -0.42097
 175.08000	  12.73665	  -0.42899
 175.29100	  12.72689	  -0.42842
 175.50100	  12.74070	  -0.42505
 175.71100	  12.74093	  -0.43174
 175.92000	  12.72415	  -0.44129
 176.12800	  12.72587	  -0.43073
 176.33700	  12.73902	  -0.43360
 176.54500	  12.72924	  -0.43258
 176.75200	  12.73150	  -0.42511
 176.96000	  12.73588	  -0.41615
 177.16800	  12.73796	  -0.42289
 177.37400	  12.73376	  -0.43264
 177.58000	  12.73372	  -0.42893
 177.78600	  12.73053	  -0.42518
 177.99200	  12.74027	  -0.43065
 178.19700	  12.74318	  -0.43433
 178.40100	  12.73140	  -0.42137
 178.60600	  12.72838	  -0.42397
 178.81000	  12.72969	  -0.43055
 179.01300	  12.73459	  -0.42858
 179.21600	  12.73187	  -0.42857
 179.41900	  12.73633	  -0.42382
 179.62100	  12.73894	  -0.42747
 179.82300	  12.74764	  -0.41939
 180.02500	  12.74562	  -0.43092
 180.22600	  12.75154	  -0.42495
 180.42700	  12.74399	  -0.42608
 180.62700	  12.73829	  -0.43088
 180.82800	  12.73819	  -0.42963
 181.02700	  12.73901	  -0.42656
 181.22600	  12.72927	  -0.42567
 181.42600	  12.72553	  -0.42230
 181.62400	  12.73894	  -0.42191
 181.82200	  12.73391	  -0.42104
 182.02000	  12.73350	  -0.42354
 182.21800	  12.73503	  -0.42529
 182.41500	  12.73488	  -0.42716
 182.61200	  12.73508	  -0.43063
 182.80800	  12.73558	  -0.42060
 183.00300	  12.74071	  -0.43196
 183.19900	  12.74256	  -0.42589
 183.39400	  12.73669	  -0.42197
 183.58900	  12.74106	  -0.42293
 183.78300	  12.73821	  -0.41477
 183.97700	  12.73972	  -0.42433
 184.17100	  12.74004	  -0.42707
 184.36500	  12.72246	  -0.42073
 184.55700	  12.72841	  -0.42507
 184.74700	  12.74051	  -0.42598
 184.93600	  12.74286	  -0.42829
 185.12400	  12.73820	  -0.43049
 185.31300	  12.73648	  -0.42333
 185.50200	  12.74243	  -0.41950
 185.69000	  12.73832	  -0.42221
 185.87800	  12.74014	  -0.43183
 186.06500	  12.73339	  -0.42307
 186.26000	  12.74332	  -0.42910
 186.44000	  12.73506	  -0.42308
 186.63400	  12.74219	  -0.41779
 186.82200	  12.74483	  -0.42225
 187.00700	  12.73751	  -0.42052
 187.19300	  12.74343	  -0.42016
 187.37800	  12.73426	  -0.41982
 187.56100	  12.73495	  -0.42259
 187.74600	  12.72853	  -0.42533
 187.93000	  12.74543	  -0.42506
 188.11400	  12.73921	  -0.42060
 188.29700	  12.73675	  -0.41836
 188.48000	  12.74983	  -0.42554
 188.66200	  12.74427	  -0.41955
 188.84400	  12.73855	  -0.41760
 189.02600	  12.73968	  -0.42026
 189.20800	  12.74680	  -0.42033
 189.39000	  12.74014	  -0.42208
 189.57100	  12.75002	  -0.41895
 189.75200	  12.75440	  -0.42971
 189.93300	  12.74905	  -0.41922
 190.11200	  12.74382	  -0.41305
 190.29300	  12.74314	  -0.41825
 190.47300	  12.73406	  -0.41873
 190.65100	  12.74351	  -0.42015
 190.83100	  12.74106	  -0.42920
 191.01000	  12.74722	  -0.42206
 191.19000	  12.73332	  -0.42105
 191.36900	  12.73943	  -0.42628
 191.54800	  12.73899	  -0.42427
 191.72700	  12.72871	  -0.42655
 191.90500	  12.73798	  -0.41879
 192.08300	  12.73653	  -0.41902
 192.26200	  12.73832	  -0.41615
 192.44000	  12.73528	  -0.41354
 192.61900	  12.74365	  -0.42173
 192.79600	  12.75347	  -0.42315
 192.97400	  12.74886	  -0.42090
 193.15300	  12.74158	  -0.42539
 193.33100	  12.73888	  -0.43333
 193.50800	  12.74014	  -0.42820
 193.68700	  12.74779	  -0.43621
 193.86400	  12.75105	  -0.42413
 194.04300	  12.74987	  -0.42373
 194.22000	  12.74676	  -0.42734
 194.39900	  12.73518	  -0.41792
 194.57600	  12.74662	  -0.42101
 194.75500	  12.74817	  -0.42235
 194.93300	  12.73507	  -0.41956
 195.11200	  12.74132	  -0.42076
 195.29000	  12.74739	  -0.42673
 195.46900	  12.74581	  -0.41908
 195.64800	  12.73347	  -0.43044
 195.82800	  12.74492	  -0.42525
 196.00700	  12.74660	  -0.41916
 196.18700	  12.74290	  -0.40776
 196.36600	  12.74298	  -0.41340
 196.54600	  12.74318	  -0.42436
 196.72600	  12.74021	  -0.41679
 196.90800	  12.74533	  -0.42166
 197.08900	  12.74689	  -0.42394
 197.27000	  12.73722	  -0.42460
 197.45100	  12.73137	  -0.42267
 197.63300	  12.73909	  -0.42533
 197.81500	  12.74368	  -0.42880
 197.99700	  12.75139	  -0.42356
 198.17900	  12.75043	  -0.42339
 198.36200	  12.74689	  -0.42030
 198.54400	  12.74576	  -0.41639
 198.72500	  12.73770	  -0.41311
 198.90600	  12.73331	  -0.42152
 199.08700	  12.73129	  -0.42433
 199.26900	  12.74764	  -0.42182
 199.45100	  12.74105	  -0.40980
 199.63300	  12.74357	  -0.41600
 199.81600	  12.74617	  -0.42473
 199.99800	  12.73897	  -0.41535
 200.18100	  12.73752	  -0.41969
 200.36400	  12.74177	  -0.41755
 200.54700	  12.74445	  -0.42386
 200.73000	  12.74294	  -0.42147
 200.91400	  12.74625	  -0.42382
 201.09800	  12.74608	  -0.41521
 201.28100	  12.73306	  -0.42367
 201.46600	  12.74297	  -0.41454
 201.65100	  12.74745	  -0.41046
 201.83700	  12.75516	  -0.41417
 202.02100	  12.74770	  -0.41716
 202.20600	  12.74379	  -0.41756
 202.39200	  12.74664	  -0.41938
 202.57800	  12.73921	  -0.43257
 202.76300	  12.74482	  -0.42515
 202.94900	  12.74961	  -0.41316
 203.13600	  12.74845	  -0.41236
 203.32200	  12.74376	  -0.41727
 203.50900	  12.73953	  -0.41288
 203.69600	  12.74333	  -0.42155
 203.88200	  12.75211	  -0.41969
 204.06900	  12.73708	  -0.42523
 204.25600	  12.74724	  -0.42404
 204.44300	  12.74630	  -0.41465
 204.63000	  12.74253	  -0.41659
 204.81700	  12.75211	  -0.42074
 205.00500	  12.74224	  -0.42182
 205.19300	  12.74109	  -0.42420
 205.38000	  12.74737	  -0.42179
 205.56700	  12.74165	  -0.42837
 205.75500	  12.74453	  -0.41762
 205.94300	  12.74474	  -0.42349
 206.13000	  12.74791	  -0.43470
 206.31800	  12.75221	  -0.42761
 206.50600	  12.75724	  -0.42296
 206.69400	  12.74794	  -0.41829
 206.88200	  12.73293	  -0.41966
 207.07000	  12.75140	  -0.41848
 207.25800	  12.74933	  -0.40589
 207.44600	  12.74529	  -0.41565
 207.63400	  12.74804	  -0.42385
 207.82100	  12.74222	  -0.41346
 208.00900	  12.73723	  -0.42088
 208.19600	  12.74215	  -0.41592
 208.38400	  12.74866	  -0.42120
 208.57200	  12.74153	  -0.41289
 208.76000	  12.74215	  -0.42555
 208.94700	  12.75458	  -0.42033
 209.13400	  12.74222	  -0.42169
 209.32200	  12.74302	  -0.42921
 209.50900	  12.74966	  -0.41860
 209.69700	  12.75405	  -0.40431
 209.88400	  12.74586	  -0.41703
 210.07100	  12.74079	  -0.40230
 210.25900	  12.74762	  -0.42011
 210.44500	  12.75923	  -0.41528
 210.63300	  12.74897	  -0.41773
 210.82000	  12.75308	  -0.41919
 211.00700	  12.75629	  -0.42883
 211.19400	  12.74430	  -0.41914
 211.38000	  12.74615	  -0.41346
 211.56700	  12.75327	  -0.41318
 211.75300	  12.74983	  -0.41822
 211.93900	  12.74675	  -0.41978
 212.12600	  12.74555	  -0.42331
 212.31200	  12.75472	  -0.41949
 212.49900	  12.75901	  -0.42161
 212.68500	  12.75250	  -0.42199
 212.87000	  12.74738	  -0.42112
 213.05500	  12.74709	  -0.42399
 213.23900	  12.75009	  -0.41797
 213.42200	  12.74543	  -0.41258
 213.60500	  12.74084	  -0.41375
 213.78800	  12.75548	  -0.42152
 213.97200	  12.74438	  -0.41664
 214.15400	  12.74971	  -0.41490
 214.33700	  12.75339	  -0.41673
 214.52000	  12.75034	  -0.41561
 214.70200	  12.74714	  -0.41709
 214.88400	  12.75429	  -0.41836
 215.06700	  12.75248	  -0.42066
 215.24900	  12.75081	  -0.42019
 215.43100	  12.75768	  -0.42041
 215.61300	  12.75373	  -0.41339
 215.79500	  12.74410	  -0.41877
 215.97700	  12.74214	  -0.41530
 216.15900	  12.75843	  -0.42324
 216.34000	  12.77208	  -0.41735
 216.52200	  12.76285	  -0.41229
 216.70300	  12.76389	  -0.41444
 216.88400	  12.76473	  -0.40988
 217.06500	  12.76508	  -0.42246
 217.24600	  12.76268	  -0.42382
 217.42700	  12.75403	  -0.41932
 217.60800	  12.75863	  -0.41265
 217.78900	  12.76137	  -0.42056
 217.97000	  12.75922	  -0.42345
 218.15100	  12.74845	  -0.42177
 218.33200	  12.75509	  -0.42542
 218.51300	  12.75320	  -0.41831
 218.69400	  12.76422	  -0.42459
 218.87500	  12.76496	  -0.41269
 219.05600	  12.77618	  -0.41160
 219.23700	  12.76355	  -0.42283
 219.41800	  12.75864	  -0.41158
 219.59900	  12.76050	  -0.42564
 219.78000	  12.76487	  -0.42317
 219.96100	  12.76322	  -0.40676
 220.14300	  12.76025	  -0.41712
 220.32500	  12.76082	  -0.41670
 220.50700	  12.76757	  -0.42258
 220.68800	  12.74810	  -0.41812
 220.87000	  12.76506	  -0.41161
 221.05200	  12.75672	  -0.42232
 221.23500	  12.76772	  -0.42220
 221.41700	  12.76544	  -0.42569
 221.60000	  12.76831	  -0.41690
 221.78300	  12.75965	  -0.42288
 221.96600	  12.76075	  -0.41214
 222.14900	  12.77219	  -0.41594
 222.33300	  12.77454	  -0.41281
 222.51700	  12.77564	  -0.39845
 222.70100	  12.76661	  -0.42125
 222.88500	  12.77785	  -0.41829
 223.06900	  12.76767	  -0.41795
 223.25400	  12.76967	  -0.42375
 223.44000	  12.76670	  -0.41808
 223.62500	  12.76835	  -0.41970
 223.81100	  12.76616	  -0.40801
 223.99700	  12.76191	  -0.42012
 224.18400	  12.75356	  -0.41828
 224.37000	  12.76603	  -0.41895
 224.55800	  12.76203	  -0.40751
 224.74500	  12.76144	  -0.40823
 224.93300	  12.75977	  -0.40947
 225.12100	  12.76391	  -0.41041
 225.31000	  12.76461	  -0.41567
 225.49900	  12.75903	  -0.40743
 225.68800	  12.76996	  -0.41410
 225.87800	  12.77601	  -0.40781
 226.06800	  12.76613	  -0.40956
 226.25800	  12.76720	  -0.42149
 226.44900	  12.76443	  -0.42493
 226.64100	  12.77549	  -0.42043
 226.83100	  12.78214	  -0.41684
 227.02300	  12.77988	  -0.41437
 227.21500	  12.76613	  -0.41618
 227.40800	  12.76135	  -0.41854
 227.60100	  12.77613	  -0.41159
 227.79400	  12.77247	  -0.40987
 227.98700	  12.77734	  -0.40760
 228.17900	  12.77730	  -0.41281
 228.37100	  12.77042	  -0.40795
 228.56400	  12.77395	  -0.40859
 228.75700	  12.77298	  -0.41490
 228.95100	  12.78014	  -0.41200
 229.14400	  12.77066	  -0.41432
 229.33800	  12.76778	  -0.42579
 229.53300	  12.76292	  -0.42466
 229.72700	  12.76896	  -0.40513
 229.92300	  12.77263	  -0.41044
 230.11800	  12.77585	  -0.40685
 230.31400	  12.78147	  -0.41640
 230.51100	  12.78194	  -0.41430
 230.70700	  12.76894	  -0.41833
 230.90400	  12.78071	  -0.41994
 231.10100	  12.77323	  -0.41570
 231.29800	  12.77814	  -0.42171
 231.49700	  12.78004	  -0.41157
 231.69500	  12.78097	  -0.41625
 231.89400	  12.77061	  -0.40848
 232.09300	  12.78084	  -0.42125
 232.29200	  12.78372	  -0.40974
 232.49100	  12.77772	  -0.40425
 232.69100	  12.77757	  -0.40544
 232.89100	  12.77552	  -0.41874
 233.08400	  12.77487	  -0.41162
 233.28300	  12.77330	  -0.41294
 233.48400	  12.77493	  -0.41595
 233.68500	  12.77909	  -0.40919
 233.88600	  12.77249	  -0.40458
 234.08800	  12.77544	  -0.41505
 234.28900	  12.77476	  -0.41778
 234.49100	  12.77911	  -0.42834
 234.69300	  12.77143	  -0.41929
 234.89500	  12.77951	  -0.41520
 235.09600	  12.77312	  -0.42010
 235.29900	  12.77759	  -0.40254
 235.50100	  12.76948	  -0.40634
 235.70400	  12.78523	  -0.40524
 235.90600	  12.78104	  -0.41412
 236.10900	  12.78655	  -0.41670
 236.31100	  12.77567	  -0.41044
 236.51300	  12.77876	  -0.40627
 236.71600	  12.78427	  -0.41879
 236.91800	  12.77998	  -0.41930
 237.12100	  12.78734	  -0.40881
 237.32200	  12.77419	  -0.41081
 237.52400	  12.77308	  -0.41300
 237.72600	  12.77386	  -0.41542
 237.92800	  12.78053	  -0.41098
 238.12900	  12.77788	  -0.41602
 238.33100	  12.77552	  -0.41203
 238.53200	  12.79245	  -0.41659
 238.73300	  12.78423	  -0.41260
 238.93400	  12.78406	  -0.41303
 239.13400	  12.78318	  -0.41542
 239.33500	  12.78583	  -0.40842
 239.53500	  12.78825	  -0.40748
 239.73500	  12.77922	  -0.40960
 239.93400	  12.78039	  -0.41356
 240.13300	  12.78813	  -0.41155
 240.33200	  12.78326	  -0.41398
 240.53000	  12.79264	  -0.41413
 240.72900	  12.78487	  -0.40740
 240.92700	  12.78783	  -0.41158
 241.12400	  12.78264	  -0.41362
 241.32100	  12.78208	  -0.40350
 241.51700	  12.78938	  -0.41286
 241.71400	  12.77676	  -0.41491
 241.90900	  12.78038	  -0.41693
 242.10400	  12.78999	  -0.40776
 242.29900	  12.78783	  -0.41221
 242.49400	  12.79150	  -0.40719
 242.68800	  12.77521	  -0.41867
 242.88200	  12.79182	  -0.41013
 243.07500	  12.79754	  -0.41222
 243.26700	  12.78565	  -0.41255
 243.45900	  12.78907	  -0.41201
 243.65100	  12.78126	  -0.40406
 243.84200	  12.77597	  -0.41672
 244.03200	  12.78691	  -0.41721
 244.22000	  12.78831	  -0.41216
 244.40700	  12.77651	  -0.40821
 244.59500	  12.78341	  -0.39926
 244.78200	  12.78808	  -0.41344
 244.96800	  12.77842	  -0.40602
 245.16000	  12.78091	  -0.41219
 245.33900	  12.79049	  -0.41512
 245.52900	  12.78884	  -0.39856
 245.71500	  12.78622	  -0.41304
 245.89800	  12.79083	  -0.41871
 246.08000	  12.79379	  -0.41570
 246.26200	  12.79448	  -0.42082
 246.44400	  12.79684	  -0.41814
 246.62400	  12.78704	  -0.41848
 246.80400	  12.78424	  -0.41500
 246.98400	  12.79448	  -0.41662
 247.16400	  12.79563	  -0.40761
 247.34200	  12.79929	  -0.41794
 247.52100	  12.79015	  -0.40579
 247.69900	  12.79379	  -0.41583
 247.87600	  12.80206	  -0.41708
 248.05300	  12.80766	  -0.41503
 248.22900	  12.79671	  -0.41471
 248.40400	  12.78767	  -0.42406
 248.57900	  12.78334	  -0.40884
 248.75300	  12.79334	  -0.39966
 248.92700	  12.78920	  -0.40824
 249.10000	  12.79531	  -0.40945
 249.27300	  12.78565	  -0.41197
 249.44500	  12.79561	  -0.40890
 249.61600	  12.79853	  -0.41181
 249.78700	  12.79680	  -0.41332
 249.95800	  12.78867	  -0.42516
 250.12700	  12.80336	  -0.42057
 250.29600	  12.80486	  -0.41403
 250.46500	  12.80439	  -0.42458
 250.63400	  12.79277	  -0.41636
 250.80100	  12.79820	  -0.41978
 250.96800	  12.79930	  -0.42219
 251.13400	  12.79719	  -0.41478
 251.30000	  12.80579	  -0.40104
 251.46500	  12.79747	  -0.40620
 251.62900	  12.80675	  -0.41261
 251.79300	  12.80074	  -0.42077
 251.95600	  12.80003	  -0.41272
 252.12000	  12.80384	  -0.41812
 252.28200	  12.79430	  -0.41959
 252.44400	  12.80012	  -0.40673
 252.60400	  12.80897	  -0.41387
 252.76500	  12.80620	  -0.41987
 252.92500	  12.80336	  -0.41143
 253.08400	  12.80362	  -0.41161
 253.24300	  12.80018	  -0.40366
 253.40100	  12.79994	  -0.41825
 253.55900	  12.79808	  -0.40461
 253.71600	  12.79512	  -0.40825
 253.87300	  12.79514	  -0.42006
 254.02800	  12.80106	  -0.41371
 254.18400	  12.79874	  -0.42006
 254.33900	  12.80743	  -0.41071
 254.49300	  12.81330	  -0.41262
 254.64700	  12.81050	  -0.40818
 254.80000	  12.80776	  -0.41305
 254.95300	  12.80505	  -0.41205
 255.10500	  12.80500	  -0.40574
 255.25600	  12.81137	  -0.41141
 255.40700	  12.79493	  -0.41326
 255.55700	  12.79440	  -0.41241
 255.70600	  12.80305	  -0.40606
 255.85500	  12.79930	  -0.41724
 256.00400	  12.80307	  -0.42111
 256.15200	  12.79581	  -0.41924
 256.29900	  12.79245	  -0.41112
 256.44600	  12.80644	  -0.40920
 256.59300	  12.79940	  -0.41195
 256.73900	  12.80232	  -0.41194
 256.88500	  12.80402	  -0.41652
 257.03000	  12.79373	  -0.41060
 257.17400	  12.80713	  -0.40739
 257.31900	  12.80947	  -0.40663
 257.46300	  12.81008	  -0.41168
 257.60600	  12.80639	  -0.40123
 257.75000	  12.81494	  -0.40936
 257.89300	  12.80343	  -0.41124
 258.03600	  12.79515	  -0.41551
 258.17800	  12.80400	  -0.42069
 258.31900	  12.80625	  -0.41365
 258.46100	  12.81733	  -0.41932
 258.60200	  12.80373	  -0.41658
 258.74300	  12.80629	  -0.40809
 258.88300	  12.80885	  -0.41756
 259.02300	  12.80637	  -0.41565
 259.16300	  12.80852	  -0.40847
 259.30200	  12.79853	  -0.41248
 259.44100	  12.80795	  -0.41608
 259.58000	  12.80535	  -0.41938
 259.71800	  12.81414	  -0.42250
 259.85600	  12.80784	  -0.42131
 259.99300	  12.80686	  -0.41596
 260.13100	  12.79926	  -0.41799
 260.26700	  12.80356	  -0.40824
 260.40300	  12.81292	  -0.41899
 260.53900	  12.81033	  -0.41018
 260.67500	  12.81105	  -0.41673
 260.81000	  12.81503	  -0.40497
 260.94500	  12.81287	  -0.40989
 261.07800	  12.80353	  -0.40867
 261.21100	  12.81358	  -0.41360
 261.34300	  12.82236	  -0.41672
 261.47400	  12.81640	  -0.41070
 261.60600	  12.80694	  -0.40515
 261.73700	  12.80956	  -0.40929
 261.86700	  12.81691	  -0.40887
 261.99700	  12.82114	  -0.40703
 262.12700	  12.81413	  -0.41443
 262.25700	  12.80783	  -0.41872
 262.38500	  12.80852	  -0.40702
 262.51400	  12.81057	  -0.42056
 262.64200	  12.81220	  -0.41134
 262.76900	  12.81407	  -0.41233
 262.89700	  12.80738	  -0.40791
 263.02300	  12.79801	  -0.41034
 263.14900	  12.81098	  -0.40130
 263.27500	  12.80678	  -0.41072
 263.40000	  12.81348	  -0.41630
 263.52500	  12.82054	  -0.41750
 263.65000	  12.82061	  -0.41386
 263.77400	  12.81438	  -0.41019
 263.89700	  12.81231	  -0.41059
 264.02100	  12.80287	  -0.40828
 264.14400	  12.80023	  -0.40186
 264.26600	  12.81025	  -0.40729
 264.38800	  12.82572	  -0.40227
 264.50900	  12.81830	  -0.41072
 264.63000	  12.81906	  -0.41687
 264.75000	  12.81838	  -0.41435
 264.87000	  12.82690	  -0.41497
 264.99000	  12.81843	  -0.41730
 265.10900	  12.82215	  -0.40663
 265.22800	  12.82487	  -0.39877
 265.34600	  12.81433	  -0.41675
 265.46300	  12.80588	  -0.41957
 265.58000	  12.82348	  -0.41751
 265.69700	  12.80552	  -0.41514
 265.81300	  12.81660	  -0.41737
 265.92900	  12.81517	  -0.40859
 266.04400	  12.80840	  -0.41081
 266.15900	  12.81894	  -0.41230
 266.27400	  12.81217	  -0.41061
 266.38700	  12.81212	  -0.40978
 266.50100	  12.81438	  -0.40281
 266.61400	  12.82650	  -0.41315
 266.72600	  12.81399	  -0.41789
 266.83800	  12.81732	  -0.40402
 266.95000	  12.81416	  -0.39835
 267.06100	  12.81101	  -0.39674
 267.17200	  12.82101	  -0.40124
 267.28200	  12.82798	  -0.41028
 267.39100	  12.81086	  -0.41404
 267.50000	  12.81433	  -0.41413
 267.61000	  12.81684	  -0.41107
 267.71700	  12.82017	  -0.40894
 267.82500	  12.81911	  -0.40442
 267.93300	  12.81735	  -0.41083
 268.03900	  12.81835	  -0.40605
 268.14500	  12.81984	  -0.41704
 268.25100	  12.81670	  -0.42360
 268.35700	  12.81362	  -0.41107
 268.46200	  12.82331	  -0.40050
 268.56600	  12.81669	  -0.41575
 268.67000	  12.81721	  -0.40533
 268.77400	  12.82709	  -0.40742
 268.87700	  12.82072	  -0.41144
 268.97900	  12.81473	  -0.40414
 269.08100	  12.82405	  -0.42239
 269.18300	  12.82878	  -0.41398
 269.28400	  12.82591	  -0.40742
 269.38500	  12.81586	  -0.41026
 269.48500	  12.82790	  -0.40286
 269.58500	  12.82053	  -0.40616
 269.68400	  12.82964	  -0.40845
 269.78300	  12.82302	  -0.40768
 269.88200	  12.82648	  -0.41498
 269.98000	  12.81832	  -0.40842
 270.07700	  12.81749	  -0.41380
 270.16800	  12.82108	  -0.41472
